Sample Index, EXG Channel 0, EXG Channel 1, EXG Channel 2, EXG Channel 3, EXG Channel 4, EXG Channel 5, EXG Channel 6, EXG Channel 7, Accel Channel 0, Accel Channel 1, Accel Channel 2, Other, Other, Other, Other, Other, Other, Other, Analog Channel 0, Analog Channel 1, Analog Channel 2, Timestamp, Other, Timestamp (Formatted)
43.0, -55991.723357644485, -20547.668105085864, -13665.767152996918, -65357.752485007346, 0.0, 0.0, 0.0, 0.0, 0.0, 0.0, 0.0, 192.0, 0.0, 0.0, 0.0, 0.0, 0.0, 0.0, 0.0, 0.0, 0.0, 1.6369780054076147E9, 0.0, 2021-11-15 04:06:45.407
44.0, -56023.23931732647, -20570.377477452457, -13703.027511003913, -65387.547360366276, 0.0, 0.0, 0.0, 0.0, 0.0, 0.0, 0.0, 192.0, 0.0, 0.0, 0.0, 0.0, 0.0, 0.0, 0.0, 0.0, 0.0, 1.6369780054076307E9, 0.0, 2021-11-15 04:06:45.407
45.0, -56017.718436446004, -20583.587358425542, -13721.735921113006, -65406.412232686554, 0.0, 0.0, 0.0, 0.0, 0.0, 0.0, 0.0, 192.0, 0.0, 0.0, 0.0, 0.0, 0.0, 0.0, 0.0, 0.0, 0.0, 1.6369780054076357E9, 0.0, 2021-11-15 04:06:45.407
46.0, -55973.03729927985, -20547.95867776378, -13666.661222775128, -65352.94685994946, 0.0, 0.0, 0.0, 0.0, 0.0, 0.0, 0.0, 192.0, 0.0, 0.0, 0.0, 0.0, 0.0, 0.0, 0.0, 0.0, 0.0, 1.63697800540764E9, 0.0, 2021-11-15 04:06:45.407
47.0, -55978.17820050457, -20534.25705841268, -13648.019867899404, -65338.32881907569, 0.0, 0.0, 0.0, 0.0, 0.0, 0.0, 0.0, 192.0, 0.0, 0.0, 0.0, 0.0, 0.0, 0.0, 0.0, 0.0, 0.0, 1.6369780054076576E9, 0.0, 2021-11-15 04:06:45.407
48.0, -55998.09360481425, -20546.215241696267, -13670.215150143524, -65358.62420304111, 0.0, 0.0, 0.0, 0.0, 0.0, 0.0, 0.0, 192.0, 0.0, 0.0, 0.0, 0.0, 0.0, 0.0, 0.0, 0.0, 0.0, 1.6369780054076629E9, 0.0, 2021-11-15 04:06:45.407
49.0, -55997.9147908586, -20558.352238935502, -13691.1810864426, -65373.53281659279, 0.0, 0.0, 0.0, 0.0, 0.0, 0.0, 0.0, 192.0, 0.0, 0.0, 0.0, 0.0, 0.0, 0.0, 0.0, 0.0, 0.0, 1.636978005407681E9, 0.0, 2021-11-15 04:06:45.407
50.0, -55986.18012501957, -20554.127759233448, -13681.65924330464, -65364.59211881067, 0.0, 0.0, 0.0, 0.0, 0.026000000000000002, 0.022, 1.0, 192.0, 0.0, 208.0, 0.0, 176.0, 31.0, 64.0, 0.0, 0.0, 0.0, 1.6369780054076855E9, 0.0, 2021-11-15 04:06:45.407
51.0, -55998.965322848, -20553.770131322162, -13681.636891560185, -65372.81756077023, 0.0, 0.0, 0.0, 0.0, 0.026000000000000002, 0.022, 1.0, 192.0, 0.0, 0.0, 0.0, 0.0, 0.0, 0.0, 0.0, 0.0, 0.0, 1.6369780054076917E9, 0.0, 2021-11-15 04:06:45.407
52.0, -56009.962381120014, -20554.373628422454, -13689.482353863998, -65379.83600852919, 0.0, 0.0, 0.0, 0.0, 0.026000000000000002, 0.022, 1.0, 192.0, 0.0, 0.0, 0.0, 0.0, 0.0, 0.0, 0.0, 0.0, 0.0, 1.6369780054076974E9, 0.0, 2021-11-15 04:06:45.407
53.0, -56004.28503802837, -20556.02765751215, -13694.086813221791, -65375.32095614922, 0.0, 0.0, 0.0, 0.0, 0.026000000000000002, 0.022, 1.0, 192.0, 0.0, 0.0, 0.0, 0.0, 0.0, 0.0, 0.0, 0.0, 0.0, 1.6369780054077034E9, 0.0, 2021-11-15 04:06:45.407
54.0, -55986.962436075504, -20553.74777957771, -13687.202475929556, -65370.78355202479, 0.0, 0.0, 0.0, 0.0, 0.026000000000000002, 0.022, 1.0, 192.0, 0.0, 0.0, 0.0, 0.0, 0.0, 0.0, 0.0, 0.0, 0.0, 1.63697800540772E9, 0.0, 2021-11-15 04:06:45.407
55.0, -56002.22867753848, -20563.873119815962, -13691.762231798439, -65383.50169461986, 0.0, 0.0, 0.0, 0.0, 0.026000000000000002, 0.022, 1.0, 192.0, 0.0, 0.0, 0.0, 0.0, 0.0, 0.0, 0.0, 0.0, 0.0, 1.636978005407725E9, 0.0, 2021-11-15 04:06:45.407
56.0, -56015.95264863404, -20561.526186648152, -13694.891476022181, -65387.435601644, 0.0, 0.0, 0.0, 0.0, 0.026000000000000002, 0.022, 1.0, 192.0, 0.0, 0.0, 0.0, 0.0, 0.0, 0.0, 0.0, 0.0, 0.0, 1.6369780054077296E9, 0.0, 2021-11-15 04:06:45.407
57.0, -56012.89045964366, -20572.567948409076, -13714.940990798592, -65403.953540796465, 0.0, 0.0, 0.0, 0.0, 0.026000000000000002, 0.022, 1.0, 192.0, 0.0, 0.0, 0.0, 0.0, 0.0, 0.0, 0.0, 0.0, 0.0, 1.636978005407734E9, 0.0, 2021-11-15 04:06:45.407
58.0, -56019.685389958075, -20595.970224853783, -13738.47737771003, -65430.21684053145, 0.0, 0.0, 0.0, 0.0, 0.026000000000000002, 0.022, 1.0, 192.0, 0.0, 0.0, 0.0, 0.0, 0.0, 0.0, 0.0, 0.0, 0.0, 1.6369780054077387E9, 0.0, 2021-11-15 04:06:45.407
59.0, -56021.2723638144, -20588.54944569462, -13719.590153645297, -65412.42485194503, 0.0, 0.0, 0.0, 0.0, 0.018000000000000002, 0.026000000000000002, 0.998, 192.0, 0.0, 144.0, 0.0, 208.0, 31.0, 48.0, 0.0, 0.0, 0.0, 1.6369780054077432E9, 0.0, 2021-11-15 04:06:45.407
60.0, -56000.97697984898, -20550.171500464858, -13667.04120243087, -65358.110112918635, 0.0, 0.0, 0.0, 0.0, 0.018000000000000002, 0.026000000000000002, 0.998, 192.0, 0.0, 0.0, 0.0, 0.0, 0.0, 0.0, 0.0, 0.0, 0.0, 1.6369780054077475E9, 0.0, 2021-11-15 04:06:45.407
61.0, -55960.185046218045, -20522.67885478483, -13637.067513116303, -65321.07327235619, 0.0, 0.0, 0.0, 0.0, 0.018000000000000002, 0.026000000000000002, 0.998, 192.0, 0.0, 0.0, 0.0, 0.0, 0.0, 0.0, 0.0, 0.0, 0.0, 1.636978005407752E9, 0.0, 2021-11-15 04:06:45.407
62.0, -55967.89639805513, -20545.097654473502, -13669.790466998873, -65352.164548893525, 0.0, 0.0, 0.0, 0.0, 0.018000000000000002, 0.026000000000000002, 0.998, 192.0, 0.0, 0.0, 0.0, 0.0, 0.0, 0.0, 0.0, 0.0, 0.0, 1.636978005407756E9, 0.0, 2021-11-15 04:06:45.407
63.0, -55984.95077907453, -20561.392076181422, -13683.3803276277, -65373.15283693706, 0.0, 0.0, 0.0, 0.0, 0.018000000000000002, 0.026000000000000002, 0.998, 192.0, 0.0, 0.0, 0.0, 0.0, 0.0, 0.0, 0.0, 0.0, 0.0, 1.636978005407761E9, 0.0, 2021-11-15 04:06:45.407
64.0, -55996.327817002275, -20550.998515009705, -13673.880836234193, -65364.99445021087, 0.0, 0.0, 0.0, 0.0, 0.018000000000000002, 0.026000000000000002, 0.998, 192.0, 0.0, 0.0, 0.0, 0.0, 0.0, 0.0, 0.0, 0.0, 0.0, 1.6369780054077656E9, 0.0, 2021-11-15 04:06:45.407
65.0, -56007.302523529834, -20556.87702380145, -13687.336586396288, -65368.50367409035, 0.0, 0.0, 0.0, 0.0, 0.018000000000000002, 0.026000000000000002, 0.998, 192.0, 0.0, 0.0, 0.0, 0.0, 0.0, 0.0, 0.0, 0.0, 0.0, 1.6369780054077723E9, 0.0, 2021-11-15 04:06:45.407
66.0, -55990.62812216618, -20562.59907038201, -13687.694214307574, -65372.03524971429, 0.0, 0.0, 0.0, 0.0, 0.018000000000000002, 0.026000000000000002, 0.998, 192.0, 0.0, 0.0, 0.0, 0.0, 0.0, 0.0, 0.0, 0.0, 0.0, 1.6369780054077878E9, 0.0, 2021-11-15 04:06:45.407
67.0, -56004.6203141952, -20581.620404913476, -13708.079005250813, -65399.70670934996, 0.0, 0.0, 0.0, 0.0, 0.018000000000000002, 0.026000000000000002, 0.998, 192.0, 0.0, 0.0, 0.0, 0.0, 0.0, 0.0, 0.0, 0.0, 0.0, 1.636978005407792E9, 0.0, 2021-11-15 04:06:45.407
68.0, -56001.93810486056, -20561.79440758162, -13684.341452639277, -65379.679546318, 0.0, 0.0, 0.0, 0.0, 0.018000000000000002, 0.026000000000000002, 0.998, 192.0, 0.0, 0.0, 0.0, 0.0, 0.0, 0.0, 0.0, 0.0, 0.0, 1.6369780054077969E9, 0.0, 2021-11-15 04:06:45.407
69.0, -56002.80982289432, -20554.217166211267, -13685.302577650855, -65374.22572067091, 0.0, 0.0, 0.0, 0.0, 0.02, 0.024, 1.004, 192.0, 0.0, 160.0, 0.0, 192.0, 31.0, 96.0, 0.0, 0.0, 0.0, 1.6369780054078012E9, 0.0, 2021-11-15 04:06:45.407
70.0, -55996.30546525782, -20556.78761682363, -13689.61646433073, -65370.80590376925, 0.0, 0.0, 0.0, 0.0, 0.02, 0.024, 1.004, 192.0, 0.0, 0.0, 0.0, 0.0, 0.0, 0.0, 0.0, 0.0, 0.0, 1.6369780054078057E9, 0.0, 2021-11-15 04:06:45.407
71.0, -55997.311293758314, -20564.16369249388, -13692.298673665366, -65374.31512764873, 0.0, 0.0, 0.0, 0.0, 0.02, 0.024, 1.004, 192.0, 0.0, 0.0, 0.0, 0.0, 0.0, 0.0, 0.0, 0.0, 0.0, 1.6369780054078207E9, 0.0, 2021-11-15 04:06:45.407
72.0, -55993.01975882289, -20551.892584787918, -13677.61357755823, -65366.98375546739, 0.0, 0.0, 0.0, 0.0, 0.02, 0.024, 1.004, 192.0, 0.0, 0.0, 0.0, 0.0, 0.0, 0.0, 0.0, 0.0, 0.0, 1.6369780054078252E9, 0.0, 2021-11-15 04:06:45.407
73.0, -55988.147078531634, -20544.2482881842, -13674.774906012406, -65366.24614790037, 0.0, 0.0, 0.0, 0.0, 0.02, 0.024, 1.004, 192.0, 0.0, 0.0, 0.0, 0.0, 0.0, 0.0, 0.0, 0.0, 0.0, 1.636978005407845E9, 0.0, 2021-11-15 04:06:45.407
74.0, -55986.24718025293, -20553.859538299985, -13684.430859617098, -65369.442447357476, 0.0, 0.0, 0.0, 0.0, 0.02, 0.024, 1.004, 192.0, 0.0, 0.0, 0.0, 0.0, 0.0, 0.0, 0.0, 0.0, 0.0, 1.6369780054078496E9, 0.0, 2021-11-15 04:06:45.407
75.0, -56001.89340137165, -20577.79825661162, -13704.458022649053, -65389.96134876744, 0.0, 0.0, 0.0, 0.0, 0.02, 0.024, 1.004, 192.0, 0.0, 0.0, 0.0, 0.0, 0.0, 0.0, 0.0, 0.0, 0.0, 1.636978005407854E9, 0.0, 2021-11-15 04:06:45.407
76.0, -56024.647477227154, -20591.097544562526, -13713.599886131275, -65406.14401175309, 0.0, 0.0, 0.0, 0.0, 0.02, 0.024, 1.004, 192.0, 0.0, 0.0, 0.0, 0.0, 0.0, 0.0, 0.0, 0.0, 0.0, 1.6369780054078584E9, 0.0, 2021-11-15 04:06:45.407
77.0, -56034.05756164284, -20587.65537591641, -13714.829232076316, -65404.78055534131, 0.0, 0.0, 0.0, 0.0, 0.02, 0.024, 1.004, 192.0, 0.0, 0.0, 0.0, 0.0, 0.0, 0.0, 0.0, 0.0, 0.0, 1.636978005407863E9, 0.0, 2021-11-15 04:06:45.407
78.0, -56020.735921947475, -20580.994556068727, -13713.063444264346, -65395.772802325824, 0.0, 0.0, 0.0, 0.0, 0.02, 0.024, 1.004, 192.0, 0.0, 0.0, 0.0, 0.0, 0.0, 0.0, 0.0, 0.0, 0.0, 1.6369780054078784E9, 0.0, 2021-11-15 04:06:45.407
79.0, -56019.7747969359, -20588.057707316602, -13715.678598365617, -65396.10807849265, 0.0, 0.0, 0.0, 0.0, 0.022, 0.022, 1.002, 192.0, 0.0, 176.0, 0.0, 176.0, 31.0, 80.0, 0.0, 0.0, 0.0, 1.6369780054078827E9, 0.0, 2021-11-15 04:06:45.407
80.0, -56023.41813128211, -20586.917768349384, -13711.543525641386, -65399.907875050056, 0.0, 0.0, 0.0, 0.0, 0.022, 0.022, 1.002, 192.0, 0.0, 0.0, 0.0, 0.0, 0.0, 0.0, 0.0, 0.0, 0.0, 1.6369780054078877E9, 0.0, 2021-11-15 04:06:45.407
81.0, -56025.74271270546, -20573.93140482085, -13704.703891838062, -65395.66104360355, 0.0, 0.0, 0.0, 0.0, 0.022, 0.022, 1.002, 192.0, 0.0, 0.0, 0.0, 0.0, 0.0, 0.0, 0.0, 0.0, 0.0, 1.6369780054079027E9, 0.0, 2021-11-15 04:06:45.407
82.0, -56002.005160093926, -20564.923651805362, -13701.99933075897, -65391.77184006832, 0.0, 0.0, 0.0, 0.0, 0.022, 0.022, 1.002, 192.0, 0.0, 0.0, 0.0, 0.0, 0.0, 0.0, 0.0, 0.0, 0.0, 1.6369780054079075E9, 0.0, 2021-11-15 04:06:45.407
83.0, -55994.04793906784, -20569.21518674078, -13697.23840918999, -65382.74173530838, 0.0, 0.0, 0.0, 0.0, 0.022, 0.022, 1.002, 192.0, 0.0, 0.0, 0.0, 0.0, 0.0, 0.0, 0.0, 0.0, 0.0, 1.636978005407912E9, 0.0, 2021-11-15 04:06:45.407
84.0, -55987.23065700897, -20557.659334857384, -13677.054783946847, -65366.782589767296, 0.0, 0.0, 0.0, 0.0, 0.022, 0.022, 1.002, 192.0, 0.0, 0.0, 0.0, 0.0, 0.0, 0.0, 0.0, 0.0, 0.0, 1.6369780054079163E9, 0.0, 2021-11-15 04:06:45.407
85.0, -56009.828270653285, -20561.526186648152, -13685.995481728969, -65380.17128469602, 0.0, 0.0, 0.0, 0.0, 0.022, 0.022, 1.002, 192.0, 0.0, 0.0, 0.0, 0.0, 0.0, 0.0, 0.0, 0.0, 0.0, 1.6369780054079208E9, 0.0, 2021-11-15 04:06:45.407
86.0, -56021.2723638144, -20577.17240776687, -13705.553258127364, -65392.19652321297, 0.0, 0.0, 0.0, 0.0, 0.022, 0.022, 1.002, 192.0, 0.0, 0.0, 0.0, 0.0, 0.0, 0.0, 0.0, 0.0, 0.0, 1.6369780054079266E9, 0.0, 2021-11-15 04:06:45.407
87.0, -56043.71351524753, -20607.12374533698, -13736.465720709053, -65414.36945371264, 0.0, 0.0, 0.0, 0.0, 0.022, 0.022, 1.002, 192.0, 0.0, 0.0, 0.0, 0.0, 0.0, 0.0, 0.0, 0.0, 0.0, 1.636978005407931E9, 0.0, 2021-11-15 04:06:45.407
88.0, -56057.66100378764, -20640.070216664102, -13774.709555472084, -65471.58991951823, 0.0, 0.0, 0.0, 0.0, 0.022, 0.022, 1.002, 192.0, 0.0, 0.0, 0.0, 0.0, 0.0, 0.0, 0.0, 0.0, 0.0, 1.6369780054079373E9, 0.0, 2021-11-15 04:06:45.407
89.0, -56041.925375691106, -20604.08390809106, -13726.899174082182, -65424.11481429516, 0.0, 0.0, 0.0, 0.0, 0.018000000000000002, 0.022, 1.004, 192.0, 0.0, 144.0, 0.0, 176.0, 31.0, 96.0, 0.0, 0.0, 0.0, 1.6369780054079416E9, 0.0, 2021-11-15 04:06:45.407
90.0, -56017.53962249037, -20573.59612865402, -13691.762231798439, -65377.51142710584, 0.0, 0.0, 0.0, 0.0, 0.018000000000000002, 0.022, 1.004, 192.0, 0.0, 0.0, 0.0, 0.0, 0.0, 0.0, 0.0, 0.0, 0.0, 1.636978005407946E9, 0.0, 2021-11-15 04:06:45.407
91.0, -55978.98286330496, -20555.312401689578, -13672.025641444403, -65357.99835419636, 0.0, 0.0, 0.0, 0.0, 0.018000000000000002, 0.022, 1.004, 192.0, 0.0, 0.0, 0.0, 0.0, 0.0, 0.0, 0.0, 0.0, 0.0, 1.6369780054079506E9, 0.0, 2021-11-15 04:06:45.407
92.0, -55987.92356108708, -20567.985840795736, -13685.436688117587, -65376.483246860895, 0.0, 0.0, 0.0, 0.0, 0.018000000000000002, 0.022, 1.004, 192.0, 0.0, 0.0, 0.0, 0.0, 0.0, 0.0, 0.0, 0.0, 0.0, 1.636978005407955E9, 0.0, 2021-11-15 04:06:45.407
93.0, -56014.231564310976, -20578.714678134285, -13698.28894117939, -65396.24218895939, 0.0, 0.0, 0.0, 0.0, 0.018000000000000002, 0.022, 1.004, 192.0, 0.0, 0.0, 0.0, 0.0, 0.0, 0.0, 0.0, 0.0, 0.0, 1.6369780054079597E9, 0.0, 2021-11-15 04:06:45.407
94.0, -56023.596945237754, -20583.386192725444, -13707.766080828438, -65401.20427622846, 0.0, 0.0, 0.0, 0.0, 0.018000000000000002, 0.022, 1.004, 192.0, 0.0, 0.0, 0.0, 0.0, 0.0, 0.0, 0.0, 0.0, 0.0, 1.636978005407964E9, 0.0, 2021-11-15 04:06:45.407
95.0, -56018.81367192432, -20590.98578584025, -13716.036226276903, -65401.20427622846, 0.0, 0.0, 0.0, 0.0, 0.018000000000000002, 0.022, 1.004, 192.0, 0.0, 0.0, 0.0, 0.0, 0.0, 0.0, 0.0, 0.0, 0.0, 1.6369780054079683E9, 0.0, 2021-11-15 04:06:45.407
96.0, -56018.99248587996, -20597.870123132485, -13718.405511189165, -65404.51233440785, 0.0, 0.0, 0.0, 0.0, 0.018000000000000002, 0.022, 1.004, 192.0, 0.0, 0.0, 0.0, 0.0, 0.0, 0.0, 0.0, 0.0, 0.0, 1.6369780054079728E9, 0.0, 2021-11-15 04:06:45.407
97.0, -56023.44048302656, -20590.203474784314, -13710.314179696345, -65403.685319863005, 0.0, 0.0, 0.0, 0.0, 0.018000000000000002, 0.022, 1.004, 192.0, 0.0, 0.0, 0.0, 0.0, 0.0, 0.0, 0.0, 0.0, 0.0, 1.636978005407977E9, 0.0, 2021-11-15 04:06:45.407
98.0, -56025.40743653863, -20582.626233413965, -13709.688330851595, -65399.907875050056, 0.0, 0.0, 0.0, 0.0, 0.022, 0.024, 1.002, 192.0, 0.0, 176.0, 0.0, 192.0, 31.0, 80.0, 0.0, 0.0, 0.0, 1.6369780054079816E9, 0.0, 2021-11-15 04:06:45.407
99.0, -56016.399683523145, -20582.87210260297, -13712.14702274168, -65394.65521510306, 0.0, 0.0, 0.0, 0.0, 0.022, 0.024, 1.002, 192.0, 0.0, 0.0, 0.0, 0.0, 0.0, 0.0, 0.0, 0.0, 0.0, 1.636978005407986E9, 0.0, 2021-11-15 04:06:45.407
100.0, -56010.588229964764, -20589.108239306002, -13709.487165151497, -65394.69991859197, 0.0, 0.0, 0.0, 0.0, 0.022, 0.024, 1.002, 192.0, 0.0, 0.0, 0.0, 0.0, 0.0, 0.0, 0.0, 0.0, 0.0, 1.6369780054079907E9, 0.0, 2021-11-15 04:06:45.407
101.0, -56019.64068646917, -20591.142248051437, -13708.32487443982, -65401.740718095396, 0.0, 0.0, 0.0, 0.0, 0.022, 0.024, 1.002, 192.0, 0.0, 0.0, 0.0, 0.0, 0.0, 0.0, 0.0, 0.0, 0.0, 1.6369780054080064E9, 0.0, 2021-11-15 04:06:45.408
102.0, -56017.874898657195, -20576.099524033016, -13702.71458658154, -65397.113906993145, 0.0, 0.0, 0.0, 0.0, 0.022, 0.024, 1.002, 192.0, 0.0, 0.0, 0.0, 0.0, 0.0, 0.0, 0.0, 0.0, 0.0, 1.6369780054080107E9, 0.0, 2021-11-15 04:06:45.408
103.0, -55999.12178505919, -20561.056800014594, -13691.1810864426, -65375.432714871495, 0.0, 0.0, 0.0, 0.0, 0.022, 0.024, 1.002, 192.0, 0.0, 0.0, 0.0, 0.0, 0.0, 0.0, 0.0, 0.0, 0.0, 1.636978005408015E9, 0.0, 2021-11-15 04:06:45.408
104.0, -55999.211192037015, -20565.68361111684, -13693.863295777237, -65373.39870612606, 0.0, 0.0, 0.0, 0.0, 0.022, 0.024, 1.002, 192.0, 0.0, 0.0, 0.0, 0.0, 0.0, 0.0, 0.0, 0.0, 0.0, 1.6369780054080193E9, 0.0, 2021-11-15 04:06:45.408
105.0, -56019.59598298025, -20578.759381623197, -13702.669883092629, -65387.36854641063, 0.0, 0.0, 0.0, 0.0, 0.022, 0.024, 1.002, 192.0, 0.0, 0.0, 0.0, 0.0, 0.0, 0.0, 0.0, 0.0, 0.0, 1.6369780054080236E9, 0.0, 2021-11-15 04:06:45.408
106.0, -56049.16734089462, -20603.860390646507, -13741.33840100031, -65437.70467492398, 0.0, 0.0, 0.0, 0.0, 0.022, 0.024, 1.002, 192.0, 0.0, 0.0, 0.0, 0.0, 0.0, 0.0, 0.0, 0.0, 0.0, 1.636978005408028E9, 0.0, 2021-11-15 04:06:45.408
107.0, -56053.458875830045, -20621.674730977385, -13769.05456412489, -65460.77167520186, 0.0, 0.0, 0.0, 0.0, 0.022, 0.024, 1.002, 192.0, 0.0, 0.0, 0.0, 0.0, 0.0, 0.0, 0.0, 0.0, 0.0, 1.6369780054080336E9, 0.0, 2021-11-15 04:06:45.408
108.0, -56040.20429136805, -20618.567838498097, -13762.48315125503, -65446.17598607254, 0.0, 0.0, 0.0, 0.0, 0.022, 0.02, 1.0, 192.0, 0.0, 176.0, 0.0, 160.0, 31.0, 64.0, 0.0, 0.0, 0.0, 1.636978005408038E9, 0.0, 2021-11-15 04:06:45.408
109.0, -55993.93618034556, -20567.471750673267, -13681.413374115631, -65368.03428745679, 0.0, 0.0, 0.0, 0.0, 0.022, 0.02, 1.0, 192.0, 0.0, 0.0, 0.0, 0.0, 0.0, 0.0, 0.0, 0.0, 0.0, 1.6369780054080424E9, 0.0, 2021-11-15 04:06:45.408
110.0, -55987.70004364253, -20541.96841024976, -13649.182158611078, -65338.529984775785, 0.0, 0.0, 0.0, 0.0, 0.022, 0.02, 1.0, 192.0, 0.0, 0.0, 0.0, 0.0, 0.0, 0.0, 0.0, 0.0, 0.0, 1.6369780054080467E9, 0.0, 2021-11-15 04:06:45.408
111.0, -56000.820517637796, -20554.843015056016, -13679.580531070296, -65362.60281355415, 0.0, 0.0, 0.0, 0.0, 0.022, 0.02, 1.0, 192.0, 0.0, 0.0, 0.0, 0.0, 0.0, 0.0, 0.0, 0.0, 0.0, 1.636978005408051E9, 0.0, 2021-11-15 04:06:45.408
112.0, -56014.14215733316, -20579.742858379228, -13711.364711685743, -65390.74365982338, 0.0, 0.0, 0.0, 0.0, 0.022, 0.02, 1.0, 192.0, 0.0, 0.0, 0.0, 0.0, 0.0, 0.0, 0.0, 0.0, 0.0, 1.6369780054080553E9, 0.0, 2021-11-15 04:06:45.408
113.0, -56030.034247640884, -20598.54067546614, -13726.80976710436, -65412.15663101157, 0.0, 0.0, 0.0, 0.0, 0.022, 0.02, 1.0, 192.0, 0.0, 0.0, 0.0, 0.0, 0.0, 0.0, 0.0, 0.0, 0.0, 1.6369780054080596E9, 0.0, 2021-11-15 04:06:45.408
114.0, -56027.70966621753, -20585.107277048504, -13712.012912274948, -65405.3393489527, 0.0, 0.0, 0.0, 0.0, 0.022, 0.02, 1.0, 192.0, 0.0, 0.0, 0.0, 0.0, 0.0, 0.0, 0.0, 0.0, 0.0, 1.636978005408064E9, 0.0, 2021-11-15 04:06:45.408
115.0, -56002.38513974967, -20560.565061636575, -13686.1295921957, -65372.504636347854, 0.0, 0.0, 0.0, 0.0, 0.022, 0.02, 1.0, 192.0, 0.0, 0.0, 0.0, 0.0, 0.0, 0.0, 0.0, 0.0, 0.0, 1.6369780054080684E9, 0.0, 2021-11-15 04:06:45.408
116.0, -55990.91869484409, -20561.16855873687, -13686.218999173523, -65365.55324382225, 0.0, 0.0, 0.0, 0.0, 0.022, 0.02, 1.0, 192.0, 0.0, 0.0, 0.0, 0.0, 0.0, 0.0, 0.0, 0.0, 0.0, 1.6369780054080727E9, 0.0, 2021-11-15 04:06:45.408
117.0, -56005.64849444014, -20577.440628700333, -13705.597961616275, -65391.41421215704, 0.0, 0.0, 0.0, 0.0, 0.022, 0.02, 1.0, 192.0, 0.0, 0.0, 0.0, 0.0, 0.0, 0.0, 0.0, 0.0, 0.0, 1.6369780054080768E9, 0.0, 2021-11-15 04:06:45.408
118.0, -56012.823404410294, -20574.713715876784, -13702.200496459067, -65397.538590137796, 0.0, 0.0, 0.0, 0.0, 0.024, 0.024, 1.0, 192.0, 0.0, 192.0, 0.0, 192.0, 31.0, 64.0, 0.0, 0.0, 0.0, 1.6369780054080815E9, 0.0, 2021-11-15 04:06:45.408
119.0, -56008.487165985964, -20567.762323351184, -13697.484278378997, -65389.67077608953, 0.0, 0.0, 0.0, 0.0, 0.024, 0.024, 1.0, 192.0, 0.0, 0.0, 0.0, 0.0, 0.0, 0.0, 0.0, 0.0, 0.0, 1.6369780054080863E9, 0.0, 2021-11-15 04:06:45.408
120.0, -55987.92356108708, -20558.82162556906, -13688.2306561745, -65372.437581114486, 0.0, 0.0, 0.0, 0.0, 0.024, 0.024, 1.0, 192.0, 0.0, 0.0, 0.0, 0.0, 0.0, 0.0, 0.0, 0.0, 0.0, 1.636978005408091E9, 0.0, 2021-11-15 04:06:45.408
121.0, -55992.99740707844, -20570.332773963546, -13695.159696955645, -65382.56292135274, 0.0, 0.0, 0.0, 0.0, 0.024, 0.024, 1.0, 192.0, 0.0, 0.0, 0.0, 0.0, 0.0, 0.0, 0.0, 0.0, 0.0, 1.6369780054080951E9, 0.0, 2021-11-15 04:06:45.408
122.0, -56002.27338102739, -20566.86825357297, -13688.56593234133, -65385.31218592074, 0.0, 0.0, 0.0, 0.0, 0.024, 0.024, 1.0, 192.0, 0.0, 0.0, 0.0, 0.0, 0.0, 0.0, 0.0, 0.0, 0.0, 1.6369780054080997E9, 0.0, 2021-11-15 04:06:45.408
123.0, -56008.68833168606, -20559.4027709249, -13687.649510818663, -65381.08770621869, 0.0, 0.0, 0.0, 0.0, 0.024, 0.024, 1.0, 192.0, 0.0, 0.0, 0.0, 0.0, 0.0, 0.0, 0.0, 0.0, 0.0, 1.636978005408104E9, 0.0, 2021-11-15 04:06:45.408
124.0, -56025.85447142774, -20583.207378769803, -13718.76313910045, -65401.24897971738, 0.0, 0.0, 0.0, 0.0, 0.024, 0.024, 1.0, 192.0, 0.0, 0.0, 0.0, 0.0, 0.0, 0.0, 0.0, 0.0, 0.0, 1.6369780054081085E9, 0.0, 2021-11-15 04:06:45.408
125.0, -56030.36952380771, -20597.49014347674, -13730.587211917307, -65411.866058333646, 0.0, 0.0, 0.0, 0.0, 0.024, 0.024, 1.0, 192.0, 0.0, 0.0, 0.0, 0.0, 0.0, 0.0, 0.0, 0.0, 0.0, 1.6369780054081125E9, 0.0, 2021-11-15 04:06:45.408
126.0, -56047.021573426915, -20606.587303470053, -13735.951630586582, -65423.91364859506, 0.0, 0.0, 0.0, 0.0, 0.024, 0.024, 1.0, 192.0, 0.0, 0.0, 0.0, 0.0, 0.0, 0.0, 0.0, 0.0, 0.0, 1.6369780054081168E9, 0.0, 2021-11-15 04:06:45.408
127.0, -56065.0817829468, -20605.49206799174, -13742.567746945351, -65429.00984633087, 0.0, 0.0, 0.0, 0.0, 0.024, 0.024, 1.0, 192.0, 0.0, 0.0, 0.0, 0.0, 0.0, 0.0, 0.0, 0.0, 0.0, 1.6369780054081216E9, 0.0, 2021-11-15 04:06:45.408
128.0, -56074.424812129124, -20630.481318292776, -13784.63373001024, -65471.67932649605, 0.0, 0.0, 0.0, 0.0, 0.022, 0.028, 0.994, 192.0, 0.0, 176.0, 0.0, 224.0, 31.0, 16.0, 0.0, 0.0, 0.0, 1.636978005408126E9, 0.0, 2021-11-15 04:06:45.408
129.0, -56085.600684356774, -20653.257745892734, -13809.846497755827, -65494.500457584916, 0.0, 0.0, 0.0, 0.0, 0.022, 0.028, 0.994, 192.0, 0.0, 0.0, 0.0, 0.0, 0.0, 0.0, 0.0, 0.0, 0.0, 1.6369780054081314E9, 0.0, 2021-11-15 04:06:45.408
130.0, -56019.3724655357, -20593.60093994152, -13723.345246713789, -65414.50356417937, 0.0, 0.0, 0.0, 0.0, 0.022, 0.028, 0.994, 192.0, 0.0, 0.0, 0.0, 0.0, 0.0, 0.0, 0.0, 0.0, 0.0, 1.6369780054081357E9, 0.0, 2021-11-15 04:06:45.408
131.0, -56014.18686082207, -20579.22876825676, -13708.458984906554, -65408.42388968753, 0.0, 0.0, 0.0, 0.0, 0.022, 0.028, 0.994, 192.0, 0.0, 0.0, 0.0, 0.0, 0.0, 0.0, 0.0, 0.0, 0.0, 1.63697800540814E9, 0.0, 2021-11-15 04:06:45.408
132.0, -56016.75731143443, -20576.97124206677, -13706.022644760926, -65391.235398201396, 0.0, 0.0, 0.0, 0.0, 0.022, 0.028, 0.994, 192.0, 0.0, 0.0, 0.0, 0.0, 0.0, 0.0, 0.0, 0.0, 0.0, 1.6369780054081445E9, 0.0, 2021-11-15 04:06:45.408
133.0, -56013.44925325504, -20575.853654844006, -13703.00515925946, -65376.01386022734, 0.0, 0.0, 0.0, 0.0, 0.022, 0.028, 0.994, 192.0, 0.0, 0.0, 0.0, 0.0, 0.0, 0.0, 0.0, 0.0, 0.0, 1.6369780054081485E9, 0.0, 2021-11-15 04:06:45.408
134.0, -56013.4716049995, -20564.275451216155, -13684.632025317196, -65356.09845591766, 0.0, 0.0, 0.0, 0.0, 0.022, 0.028, 0.994, 192.0, 0.0, 0.0, 0.0, 0.0, 0.0, 0.0, 0.0, 0.0, 0.0, 1.6369780054081528E9, 0.0, 2021-11-15 04:06:45.408
135.0, -56005.11205257321, -20554.038352255626, -13684.967301484026, -65370.1800549245, 0.0, 0.0, 0.0, 0.0, 0.022, 0.028, 0.994, 192.0, 0.0, 0.0, 0.0, 0.0, 0.0, 0.0, 0.0, 0.0, 0.0, 1.636978005408157E9, 0.0, 2021-11-15 04:06:45.408
136.0, -56006.94489561855, -20561.3026692036, -13700.14413596918, -65379.768953295825, 0.0, 0.0, 0.0, 0.0, 0.022, 0.028, 0.994, 192.0, 0.0, 0.0, 0.0, 0.0, 0.0, 0.0, 0.0, 0.0, 0.0, 1.6369780054081616E9, 0.0, 2021-11-15 04:06:45.408
137.0, -56013.113977088215, -20581.285128746644, -13720.439519934598, -65395.70574709246, 0.0, 0.0, 0.0, 0.0, 0.022, 0.028, 0.994, 192.0, 0.0, 0.0, 0.0, 0.0, 0.0, 0.0, 0.0, 0.0, 0.0, 1.6369780054081657E9, 0.0, 2021-11-15 04:06:45.408
138.0, -56009.15771831963, -20582.290957247133, -13714.583362887308, -65395.61634011464, 0.0, 0.0, 0.0, 0.0, 0.024, 0.028, 0.998, 192.0, 0.0, 192.0, 0.0, 224.0, 31.0, 48.0, 0.0, 0.0, 0.0, 1.63697800540817E9, 0.0, 2021-11-15 04:06:45.408
139.0, -55997.84773562524, -20559.045143013616, -13689.974092242015, -65378.47255211742, 0.0, 0.0, 0.0, 0.0, 0.024, 0.028, 0.998, 192.0, 0.0, 0.0, 0.0, 0.0, 0.0, 0.0, 0.0, 0.0, 0.0, 1.6369780054081745E9, 0.0, 2021-11-15 04:06:45.408
140.0, -55971.718546356984, -20531.798366522595, -13667.108257664235, -65350.89049945957, 0.0, 0.0, 0.0, 0.0, 0.024, 0.028, 0.998, 192.0, 0.0, 0.0, 0.0, 0.0, 0.0, 0.0, 0.0, 0.0, 0.0, 1.6369780054081788E9, 0.0, 2021-11-15 04:06:45.408
141.0, -55982.357976717714, -20552.69724758831, -13686.554275340353, -65361.55228156475, 0.0, 0.0, 0.0, 0.0, 0.024, 0.028, 0.998, 192.0, 0.0, 0.0, 0.0, 0.0, 0.0, 0.0, 0.0, 0.0, 0.0, 1.636978005408183E9, 0.0, 2021-11-15 04:06:45.408
142.0, -56011.772872420894, -20586.135457293447, -13718.651380378173, -65394.02936625831, 0.0, 0.0, 0.0, 0.0, 0.024, 0.028, 0.998, 192.0, 0.0, 0.0, 0.0, 0.0, 0.0, 0.0, 0.0, 0.0, 0.0, 1.6369780054081872E9, 0.0, 2021-11-15 04:06:45.408
143.0, -56038.147930878156, -20598.831248144063, -13733.872918352237, -65414.48121243492, 0.0, 0.0, 0.0, 0.0, 0.024, 0.028, 0.998, 192.0, 0.0, 0.0, 0.0, 0.0, 0.0, 0.0, 0.0, 0.0, 0.0, 1.6369780054081917E9, 0.0, 2021-11-15 04:06:45.408
144.0, -56056.72223052052, -20607.704890692818, -13752.715438928062, -65429.836860875716, 0.0, 0.0, 0.0, 0.0, 0.024, 0.028, 0.998, 192.0, 0.0, 0.0, 0.0, 0.0, 0.0, 0.0, 0.0, 0.0, 0.0, 1.636978005408196E9, 0.0, 2021-11-15 04:06:45.408
145.0, -56046.66394551563, -20607.056690103615, -13755.643517451706, -65425.500622451385, 0.0, 0.0, 0.0, 0.0, 0.024, 0.028, 0.998, 192.0, 0.0, 0.0, 0.0, 0.0, 0.0, 0.0, 0.0, 0.0, 0.0, 1.6369780054082005E9, 0.0, 2021-11-15 04:06:45.408
146.0, -56048.31797460532, -20616.17620184138, -13760.851473909794, -65432.943753355, 0.0, 0.0, 0.0, 0.0, 0.024, 0.028, 0.998, 192.0, 0.0, 0.0, 0.0, 0.0, 0.0, 0.0, 0.0, 0.0, 0.0, 1.6369780054082046E9, 0.0, 2021-11-15 04:06:45.408
147.0, -56066.66875680313, -20625.69804497934, -13766.81938967936, -65445.75130292789, 0.0, 0.0, 0.0, 0.0, 0.02, 0.026000000000000002, 0.996, 192.0, 0.0, 160.0, 0.0, 208.0, 31.0, 32.0, 0.0, 0.0, 0.0, 1.6369780054082088E9, 0.0, 2021-11-15 04:06:45.408
148.0, -56070.736774294, -20617.919637908893, -13763.600738477797, -65438.79991040229, 0.0, 0.0, 0.0, 0.0, 0.02, 0.026000000000000002, 0.996, 192.0, 0.0, 0.0, 0.0, 0.0, 0.0, 0.0, 0.0, 0.0, 0.0, 1.6369780054082131E9, 0.0, 2021-11-15 04:06:45.408
149.0, -56071.407326627654, -20629.341379325557, -13777.145895617712, -65446.734779683924, 0.0, 0.0, 0.0, 0.0, 0.02, 0.026000000000000002, 0.996, 192.0, 0.0, 0.0, 0.0, 0.0, 0.0, 0.0, 0.0, 0.0, 0.0, 1.6369780054082177E9, 0.0, 2021-11-15 04:06:45.408
150.0, -56065.66292830264, -20634.102300894538, -13778.978738663047, -65447.941773884515, 0.0, 0.0, 0.0, 0.0, 0.02, 0.026000000000000002, 0.996, 192.0, 0.0, 0.0, 0.0, 0.0, 0.0, 0.0, 0.0, 0.0, 0.0, 1.6369780054082232E9, 0.0, 2021-11-15 04:06:45.408
151.0, -56067.361660881244, -20628.849640947537, -13771.714421715073, -65448.43351226253, 0.0, 0.0, 0.0, 0.0, 0.02, 0.026000000000000002, 0.996, 192.0, 0.0, 0.0, 0.0, 0.0, 0.0, 0.0, 0.0, 0.0, 0.0, 1.6369780054082274E9, 0.0, 2021-11-15 04:06:45.408
152.0, -56062.73484977899, -20606.453193003323, -13752.62603195024, -65427.020541074344, 0.0, 0.0, 0.0, 0.0, 0.02, 0.026000000000000002, 0.996, 192.0, 0.0, 0.0, 0.0, 0.0, 0.0, 0.0, 0.0, 0.0, 0.0, 1.6369780054082315E9, 0.0, 2021-11-15 04:06:45.408
153.0, -56060.20910265554, -20610.342396538545, -13763.10900009978, -65429.56863994225, 0.0, 0.0, 0.0, 0.0, 0.02, 0.026000000000000002, 0.996, 192.0, 0.0, 0.0, 0.0, 0.0, 0.0, 0.0, 0.0, 0.0, 0.0, 1.636978005408236E9, 0.0, 2021-11-15 04:06:45.408
154.0, -56060.20910265554, -20624.245181589748, -13778.665814240672, -65445.93011688354, 0.0, 0.0, 0.0, 0.0, 0.02, 0.026000000000000002, 0.996, 192.0, 0.0, 0.0, 0.0, 0.0, 0.0, 0.0, 0.0, 0.0, 0.0, 1.6369780054082403E9, 0.0, 2021-11-15 04:06:45.408
155.0, -56067.87575100372, -20622.41233854441, -13775.111886872279, -65442.91263138207, 0.0, 0.0, 0.0, 0.0, 0.02, 0.026000000000000002, 0.996, 192.0, 0.0, 0.0, 0.0, 0.0, 0.0, 0.0, 0.0, 0.0, 0.0, 1.6369780054082448E9, 0.0, 2021-11-15 04:06:45.408
156.0, -56068.99333822648, -20605.156791824913, -13761.67848845464, -65429.412177731065, 0.0, 0.0, 0.0, 0.0, 0.02, 0.026000000000000002, 0.996, 192.0, 0.0, 0.0, 0.0, 0.0, 0.0, 0.0, 0.0, 0.0, 0.0, 1.636978005408249E9, 0.0, 2021-11-15 04:06:45.408
157.0, -56085.35481516777, -20623.909905422915, -13794.803773737405, -65456.1001606107, 0.0, 0.0, 0.0, 0.0, 0.018000000000000002, 0.024, 0.996, 192.0, 0.0, 144.0, 0.0, 192.0, 31.0, 32.0, 0.0, 0.0, 0.0, 1.6369780054082532E9, 0.0, 2021-11-15 04:06:45.408
158.0, -56136.33914427032, -20677.017650248727, -13861.300213491942, -65515.466393883995, 0.0, 0.0, 0.0, 0.0, 0.018000000000000002, 0.024, 0.996, 192.0, 0.0, 0.0, 0.0, 0.0, 0.0, 0.0, 0.0, 0.0, 0.0, 1.6369780054082575E9, 0.0, 2021-11-15 04:06:45.408
159.0, -56058.3315561213, -20621.630027488474, -13774.374279305253, -65442.823224404245, 0.0, 0.0, 0.0, 0.0, 0.018000000000000002, 0.024, 0.996, 192.0, 0.0, 0.0, 0.0, 0.0, 0.0, 0.0, 0.0, 0.0, 0.0, 1.636978005408262E9, 0.0, 2021-11-15 04:06:45.408
160.0, -56025.340381305265, -20578.938195578838, -13728.732017127517, -65397.00214827087, 0.0, 0.0, 0.0, 0.0, 0.018000000000000002, 0.024, 0.996, 192.0, 0.0, 0.0, 0.0, 0.0, 0.0, 0.0, 0.0, 0.0, 0.0, 1.636978005408274E9, 0.0, 2021-11-15 04:06:45.408
161.0, -56039.19846286756, -20595.299672520123, -13765.791209434416, -65430.08273006472, 0.0, 0.0, 0.0, 0.0, 0.018000000000000002, 0.024, 0.996, 192.0, 0.0, 0.0, 0.0, 0.0, 0.0, 0.0, 0.0, 0.0, 0.0, 1.6369780054082787E9, 0.0, 2021-11-15 04:06:45.408
162.0, -56043.22177686951, -20617.45025127533, -13785.036061410436, -65454.200262332, 0.0, 0.0, 0.0, 0.0, 0.018000000000000002, 0.024, 0.996, 192.0, 0.0, 0.0, 0.0, 0.0, 0.0, 0.0, 0.0, 0.0, 0.0, 1.636978005408283E9, 0.0, 2021-11-15 04:06:45.408
163.0, -56020.98179113648, -20585.35314623751, -13730.05077005038, -65390.542494123285, 0.0, 0.0, 0.0, 0.0, 0.018000000000000002, 0.024, 0.996, 192.0, 0.0, 0.0, 0.0, 0.0, 0.0, 0.0, 0.0, 0.0, 0.0, 1.6369780054082873E9, 0.0, 2021-11-15 04:06:45.408
164.0, -56020.46770101401, -20570.64569838592, -13716.527964654919, -65377.80199978376, 0.0, 0.0, 0.0, 0.0, 0.018000000000000002, 0.024, 0.996, 192.0, 0.0, 0.0, 0.0, 0.0, 0.0, 0.0, 0.0, 0.0, 0.0, 1.636978005408306E9, 0.0, 2021-11-15 04:06:45.408
165.0, -56048.92147170562, -20590.11406780649, -13752.044886594402, -65405.94284605299, 0.0, 0.0, 0.0, 0.0, 0.018000000000000002, 0.024, 0.996, 192.0, 0.0, 0.0, 0.0, 0.0, 0.0, 0.0, 0.0, 0.0, 0.0, 1.6369780054083104E9, 0.0, 2021-11-15 04:06:45.408
166.0, -56074.424812129124, -20625.787451957163, -13796.994244694024, -65445.281916294334, 0.0, 0.0, 0.0, 0.0, 0.018000000000000002, 0.024, 0.996, 192.0, 0.0, 0.0, 0.0, 0.0, 0.0, 0.0, 0.0, 0.0, 0.0, 1.6369780054083147E9, 0.0, 2021-11-15 04:06:45.408
167.0, -56074.04483247338, -20629.74371072575, -13798.961198206092, -65450.13224484113, 0.0, 0.0, 0.0, 0.0, 0.016, 0.022, 0.996, 192.0, 0.0, 128.0, 0.0, 176.0, 31.0, 32.0, 0.0, 0.0, 0.0, 1.6369780054083192E9, 0.0, 2021-11-15 04:06:45.408
0.0, 0.0, 0.0, 0.0, 0.0, 0.0, 0.0, 0.0, 0.0, 0.016, 0.022, 0.996, 192.0, 0.0, 0.0, 0.0, 0.0, 0.0, 0.0, 0.0, 0.0, 0.0, 1.6369780054721096E9, 0.0, 2021-11-15 04:06:45.472
1.0, -56053.43652408559, -20680.70568808385, -13767.936976902125, -65064.67641170936, 0.0, 0.0, 0.0, 0.0, 0.016, 0.026000000000000002, 0.994, 192.0, 0.0, 128.0, 0.0, 208.0, 31.0, 16.0, 0.0, 0.0, 0.0, 1.6369780059555345E9, 0.0, 2021-11-15 04:06:45.955
2.0, -56053.0788961743, -20692.350946945066, -13763.131351844235, -65060.004897118204, 0.0, 0.0, 0.0, 0.0, 0.016, 0.026000000000000002, 0.994, 192.0, 0.0, 0.0, 0.0, 0.0, 0.0, 0.0, 0.0, 0.0, 0.0, 1.636978005955593E9, 0.0, 2021-11-15 04:06:45.955
3.0, -56038.57261402281, -20667.56286234413, -13724.66399963665, -65017.6930448643, 0.0, 0.0, 0.0, 0.0, 0.016, 0.026000000000000002, 0.994, 192.0, 0.0, 0.0, 0.0, 0.0, 0.0, 0.0, 0.0, 0.0, 0.0, 1.6369780059556584E9, 0.0, 2021-11-15 04:06:45.955
4.0, -56058.823294499314, -20673.79899904716, -13742.120712056247, -65030.657056648386, 0.0, 0.0, 0.0, 0.0, 0.016, 0.026000000000000002, 0.994, 192.0, 0.0, 0.0, 0.0, 0.0, 0.0, 0.0, 0.0, 0.0, 0.0, 1.636978005955663E9, 0.0, 2021-11-15 04:06:45.955
5.0, -56050.37433509521, -20677.732906071295, -13735.973982331036, -65023.9962368007, 0.0, 0.0, 0.0, 0.0, 0.016, 0.026000000000000002, 0.994, 192.0, 0.0, 0.0, 0.0, 0.0, 0.0, 0.0, 0.0, 0.0, 0.0, 1.6369780059556675E9, 0.0, 2021-11-15 04:06:45.955
6.0, -56039.15375937865, -20689.489923654786, -13738.522081198942, -65031.26055374868, 0.0, 0.0, 0.0, 0.0, 0.016, 0.026000000000000002, 0.994, 192.0, 0.0, 0.0, 0.0, 0.0, 0.0, 0.0, 0.0, 0.0, 0.0, 1.636978005955672E9, 0.0, 2021-11-15 04:06:45.955
7.0, -56052.00601244045, -20710.94759833188, -13772.63084323774, -65073.438295535845, 0.0, 0.0, 0.0, 0.0, 0.016, 0.026000000000000002, 0.994, 192.0, 0.0, 0.0, 0.0, 0.0, 0.0, 0.0, 0.0, 0.0, 0.0, 1.6369780059556766E9, 0.0, 2021-11-15 04:06:45.955
8.0, -56063.24893990147, -20700.598740649075, -13769.881578669738, -65068.65502222241, 0.0, 0.0, 0.0, 0.0, 0.016, 0.022, 0.998, 192.0, 0.0, 128.0, 0.0, 176.0, 31.0, 48.0, 0.0, 0.0, 0.0, 1.636978005955681E9, 0.0, 2021-11-15 04:06:45.955
9.0, -56030.50363427444, -20671.76499030173, -13732.822386362837, -65030.54529792611, 0.0, 0.0, 0.0, 0.0, 0.016, 0.022, 0.998, 192.0, 0.0, 0.0, 0.0, 0.0, 0.0, 0.0, 0.0, 0.0, 0.0, 1.6369780059556856E9, 0.0, 2021-11-15 04:06:45.955
10.0, -56001.088738571256, -20651.89428948096, -13697.976016757015, -64988.278149161124, 0.0, 0.0, 0.0, 0.0, 0.016, 0.022, 0.998, 192.0, 0.0, 0.0, 0.0, 0.0, 0.0, 0.0, 0.0, 0.0, 0.0, 1.63697800595569E9, 0.0, 2021-11-15 04:06:45.955
11.0, -56004.66501768411, -20657.862205250527, -13695.763194055939, -64991.89913176288, 0.0, 0.0, 0.0, 0.0, 0.016, 0.022, 0.998, 192.0, 0.0, 0.0, 0.0, 0.0, 0.0, 0.0, 0.0, 0.0, 0.0, 1.6369780059556944E9, 0.0, 2021-11-15 04:06:45.955
12.0, -56004.575610706284, -20646.909850467426, -13694.243275432978, -64996.592998098495, 0.0, 0.0, 0.0, 0.0, 0.016, 0.022, 0.998, 192.0, 0.0, 0.0, 0.0, 0.0, 0.0, 0.0, 0.0, 0.0, 0.0, 1.6369780059556987E9, 0.0, 2021-11-15 04:06:45.955
13.0, -56009.38123576418, -20640.114920153013, -13696.679615578607, -64987.96522473875, 0.0, 0.0, 0.0, 0.0, 0.016, 0.022, 0.998, 192.0, 0.0, 0.0, 0.0, 0.0, 0.0, 0.0, 0.0, 0.0, 0.0, 1.6369780059557033E9, 0.0, 2021-11-15 04:06:45.955
14.0, -56015.41620676711, -20654.397684859956, -13716.036226276903, -65005.95837902527, 0.0, 0.0, 0.0, 0.0, 0.016, 0.022, 0.998, 192.0, 0.0, 0.0, 0.0, 0.0, 0.0, 0.0, 0.0, 0.0, 0.0, 1.636978005955708E9, 0.0, 2021-11-15 04:06:45.955
15.0, -56023.19461383756, -20667.6299175775, -13731.391874717698, -65028.690103136316, 0.0, 0.0, 0.0, 0.0, 0.016, 0.022, 0.998, 192.0, 0.0, 0.0, 0.0, 0.0, 0.0, 0.0, 0.0, 0.0, 0.0, 1.6369780059557123E9, 0.0, 2021-11-15 04:06:45.955
16.0, -56021.56293649232, -20650.352019113543, -13716.237391977, -65017.46952741975, 0.0, 0.0, 0.0, 0.0, 0.016, 0.022, 0.998, 192.0, 0.0, 0.0, 0.0, 0.0, 0.0, 0.0, 0.0, 0.0, 0.0, 1.6369780059557185E9, 0.0, 2021-11-15 04:06:45.955
17.0, -56002.42984323858, -20626.547411268642, -13692.991577743482, -64984.41129737035, 0.0, 0.0, 0.0, 0.0, 0.016, 0.022, 0.998, 192.0, 0.0, 128.0, 0.0, 176.0, 31.0, 48.0, 0.0, 0.0, 0.0, 1.6369780059557228E9, 0.0, 2021-11-15 04:06:45.955
18.0, -56011.23643055397, -20646.41811208941, -13716.304447210367, -65010.2946174496, 0.0, 0.0, 0.0, 0.0, 0.016, 0.022, 0.998, 192.0, 0.0, 0.0, 0.0, 0.0, 0.0, 0.0, 0.0, 0.0, 0.0, 1.636978005955727E9, 0.0, 2021-11-15 04:06:45.955
19.0, -56019.99831438045, -20658.622164562006, -13723.836985091804, -65020.86699257696, 0.0, 0.0, 0.0, 0.0, 0.016, 0.022, 0.998, 192.0, 0.0, 0.0, 0.0, 0.0, 0.0, 0.0, 0.0, 0.0, 0.0, 1.6369780059557316E9, 0.0, 2021-11-15 04:06:45.955
20.0, -56028.08964587327, -20650.55318481364, -13716.751482099473, -65012.57449538404, 0.0, 0.0, 0.0, 0.0, 0.016, 0.022, 0.998, 192.0, 0.0, 0.0, 0.0, 0.0, 0.0, 0.0, 0.0, 0.0, 0.0, 1.636978005955736E9, 0.0, 2021-11-15 04:06:45.955
21.0, -56012.555183476834, -20627.620295002496, -13697.797202801372, -64985.17125668183, 0.0, 0.0, 0.0, 0.0, 0.016, 0.022, 0.998, 192.0, 0.0, 0.0, 0.0, 0.0, 0.0, 0.0, 0.0, 0.0, 0.0, 1.6369780059557517E9, 0.0, 2021-11-15 04:06:45.955
22.0, -56024.13338710468, -20648.60858304603, -13719.076063522823, -65004.17023946885, 0.0, 0.0, 0.0, 0.0, 0.016, 0.022, 0.998, 192.0, 0.0, 0.0, 0.0, 0.0, 0.0, 0.0, 0.0, 0.0, 0.0, 1.636978005955756E9, 0.0, 2021-11-15 04:06:45.955
23.0, -56028.46962552901, -20665.66296406543, -13726.787415359906, -65020.30819896558, 0.0, 0.0, 0.0, 0.0, 0.016, 0.022, 0.998, 192.0, 0.0, 0.0, 0.0, 0.0, 0.0, 0.0, 0.0, 0.0, 0.0, 1.6369780059557605E9, 0.0, 2021-11-15 04:06:45.955
24.0, -56032.38118080869, -20666.601737332552, -13730.520156683942, -65029.40535895889, 0.0, 0.0, 0.0, 0.0, 0.016, 0.022, 0.998, 192.0, 0.0, 0.0, 0.0, 0.0, 0.0, 0.0, 0.0, 0.0, 0.0, 1.6369780059557648E9, 0.0, 2021-11-15 04:06:45.955
25.0, -56044.80875072584, -20671.116789712523, -13740.421979477642, -65038.189594529824, 0.0, 0.0, 0.0, 0.0, 0.016, 0.022, 0.998, 192.0, 0.0, 0.0, 0.0, 0.0, 0.0, 0.0, 0.0, 0.0, 0.0, 1.6369780059557703E9, 0.0, 2021-11-15 04:06:45.955
26.0, -56040.91954719061, -20674.961289758838, -13737.873880609737, -65031.37231247096, 0.0, 0.0, 0.0, 0.0, 0.016, 0.022, 0.998, 192.0, 0.0, 0.0, 0.0, 0.0, 0.0, 0.0, 0.0, 0.0, 0.0, 1.6369780059557743E9, 0.0, 2021-11-15 04:06:45.955
27.0, -56052.967137452026, -20693.557941145653, -13757.252843052489, -65048.404341745896, 0.0, 0.0, 0.0, 0.0, 0.012, 0.022, 1.0, 192.0, 0.0, 96.0, 0.0, 176.0, 31.0, 64.0, 0.0, 0.0, 0.0, 1.6369780059557788E9, 0.0, 2021-11-15 04:06:45.955
28.0, -56051.067239173324, -20691.389821933488, -13751.709610427573, -65049.656039435395, 0.0, 0.0, 0.0, 0.0, 0.012, 0.022, 1.0, 192.0, 0.0, 0.0, 0.0, 0.0, 0.0, 0.0, 0.0, 0.0, 0.0, 1.6369780059557831E9, 0.0, 2021-11-15 04:06:45.955
29.0, -56029.2742883294, -20659.784455273682, -13713.130499497713, -65013.021530273145, 0.0, 0.0, 0.0, 0.0, 0.012, 0.022, 1.0, 192.0, 0.0, 0.0, 0.0, 0.0, 0.0, 0.0, 0.0, 0.0, 0.0, 1.6369780059557877E9, 0.0, 2021-11-15 04:06:45.955
30.0, -56011.504651487434, -20651.38019935849, -13709.956551785059, -65004.25964644667, 0.0, 0.0, 0.0, 0.0, 0.012, 0.022, 1.0, 192.0, 0.0, 0.0, 0.0, 0.0, 0.0, 0.0, 0.0, 0.0, 0.0, 1.636978005955792E9, 0.0, 2021-11-15 04:06:45.955
31.0, -56006.207288051526, -20665.57355708761, -13723.322894969333, -65024.10799552298, 0.0, 0.0, 0.0, 0.0, 0.012, 0.022, 1.0, 192.0, 0.0, 0.0, 0.0, 0.0, 0.0, 0.0, 0.0, 0.0, 0.0, 1.6369780059557965E9, 0.0, 2021-11-15 04:06:45.955
32.0, -55995.47845071297, -20654.509443582232, -13701.172316214122, -65005.0419575026, 0.0, 0.0, 0.0, 0.0, 0.012, 0.022, 1.0, 192.0, 0.0, 0.0, 0.0, 0.0, 0.0, 0.0, 0.0, 0.0, 0.0, 1.6369780059558008E9, 0.0, 2021-11-15 04:06:45.955
33.0, -56012.979866621485, -20648.65328653494, -13708.347226184276, -65004.88549529142, 0.0, 0.0, 0.0, 0.0, 0.012, 0.022, 1.0, 192.0, 0.0, 0.0, 0.0, 0.0, 0.0, 0.0, 0.0, 0.0, 0.0, 1.636978005955805E9, 0.0, 2021-11-15 04:06:45.955
34.0, -56029.14017786267, -20660.298545396156, -13727.457967693565, -65016.75427159719, 0.0, 0.0, 0.0, 0.0, 0.012, 0.022, 1.0, 192.0, 0.0, 0.0, 0.0, 0.0, 0.0, 0.0, 0.0, 0.0, 0.0, 1.6369780059558094E9, 0.0, 2021-11-15 04:06:45.955
35.0, -56004.46385198401, -20652.475434836797, -13703.228676704011, -64994.156657952866, 0.0, 0.0, 0.0, 0.0, 0.012, 0.022, 1.0, 192.0, 0.0, 0.0, 0.0, 0.0, 0.0, 0.0, 0.0, 0.0, 0.0, 1.636978005955814E9, 0.0, 2021-11-15 04:06:45.955
36.0, -55995.433747224066, -20654.04005694867, -13701.909923781148, -65003.1420592239, 0.0, 0.0, 0.0, 0.0, 0.012, 0.022, 1.0, 192.0, 0.0, 0.0, 0.0, 0.0, 0.0, 0.0, 0.0, 0.0, 0.0, 1.636978005955818E9, 0.0, 2021-11-15 04:06:45.955
37.0, -56013.49395674396, -20652.766007514718, -13713.599886131275, -65010.07110000505, 0.0, 0.0, 0.0, 0.0, 0.014, 0.024, 1.0, 192.0, 0.0, 112.0, 0.0, 192.0, 31.0, 64.0, 0.0, 0.0, 0.0, 1.6369780059558225E9, 0.0, 2021-11-15 04:06:45.955
38.0, -56002.45219498303, -20634.839908461563, -13698.46775513503, -64986.71352704925, 0.0, 0.0, 0.0, 0.0, 0.014, 0.024, 1.0, 192.0, 0.0, 0.0, 0.0, 0.0, 0.0, 0.0, 0.0, 0.0, 0.0, 1.6369780059558268E9, 0.0, 2021-11-15 04:06:45.955
39.0, -55993.28797975636, -20639.64553351945, -13698.177182457111, -64987.76405903865, 0.0, 0.0, 0.0, 0.0, 0.014, 0.024, 1.0, 192.0, 0.0, 0.0, 0.0, 0.0, 0.0, 0.0, 0.0, 0.0, 0.0, 1.6369780059558313E9, 0.0, 2021-11-15 04:06:45.955
40.0, -55999.546468203844, -20648.541527812664, -13702.066385992335, -64995.49776262019, 0.0, 0.0, 0.0, 0.0, 0.014, 0.024, 1.0, 192.0, 0.0, 0.0, 0.0, 0.0, 0.0, 0.0, 0.0, 0.0, 0.0, 1.6369780059558356E9, 0.0, 2021-11-15 04:06:45.955
41.0, -56029.00606739594, -20657.37046687251, -13718.629028633719, -65012.97682678424, 0.0, 0.0, 0.0, 0.0, 0.014, 0.024, 1.0, 192.0, 0.0, 0.0, 0.0, 0.0, 0.0, 0.0, 0.0, 0.0, 0.0, 1.63697800595584E9, 0.0, 2021-11-15 04:06:45.955
42.0, -56017.85254691274, -20644.048827177146, -13710.202420974067, -64999.27520743314, 0.0, 0.0, 0.0, 0.0, 0.014, 0.024, 1.0, 192.0, 0.0, 0.0, 0.0, 0.0, 0.0, 0.0, 0.0, 0.0, 0.0, 1.6369780059558444E9, 0.0, 2021-11-15 04:06:45.955
43.0, -56021.719398703506, -20657.973963972803, -13723.52406066943, -65009.15467848238, 0.0, 0.0, 0.0, 0.0, 0.014, 0.024, 1.0, 192.0, 0.0, 0.0, 0.0, 0.0, 0.0, 0.0, 0.0, 0.0, 0.0, 1.6369780059558487E9, 0.0, 2021-11-15 04:06:45.955
44.0, -56027.88848017317, -20672.99433624677, -13728.396740960687, -65022.56572515556, 0.0, 0.0, 0.0, 0.0, 0.014, 0.024, 1.0, 192.0, 0.0, 0.0, 0.0, 0.0, 0.0, 0.0, 0.0, 0.0, 0.0, 1.6369780059558537E9, 0.0, 2021-11-15 04:06:45.955
45.0, -55986.42599420858, -20629.676655492385, -13674.529036823396, -64978.13045717841, 0.0, 0.0, 0.0, 0.0, 0.014, 0.024, 1.0, 192.0, 0.0, 0.0, 0.0, 0.0, 0.0, 0.0, 0.0, 0.0, 0.0, 1.636978005955858E9, 0.0, 2021-11-15 04:06:45.955
46.0, -55977.529999915365, -20613.851620418027, -13669.343432109767, -64968.921538462826, 0.0, 0.0, 0.0, 0.0, 0.014, 0.024, 1.0, 192.0, 0.0, 0.0, 0.0, 0.0, 0.0, 0.0, 0.0, 0.0, 0.0, 1.6369780059558637E9, 0.0, 2021-11-15 04:06:45.955
47.0, -55998.294770514345, -20643.51238531022, -13709.040130262392, -65007.791222070606, 0.0, 0.0, 0.0, 0.0, 0.016, 0.026000000000000002, 1.0, 192.0, 0.0, 128.0, 0.0, 208.0, 31.0, 64.0, 0.0, 0.0, 0.0, 1.636978005955868E9, 0.0, 2021-11-15 04:06:45.955
48.0, -56033.0740848868, -20680.75039157276, -13745.138197557711, -65043.218737032264, 0.0, 0.0, 0.0, 0.0, 0.016, 0.026000000000000002, 1.0, 192.0, 0.0, 0.0, 0.0, 0.0, 0.0, 0.0, 0.0, 0.0, 0.0, 1.6369780059558723E9, 0.0, 2021-11-15 04:06:45.955
49.0, -56056.319899120324, -20687.053583509158, -13750.368505760254, -65046.90677486739, 0.0, 0.0, 0.0, 0.0, 0.016, 0.026000000000000002, 1.0, 192.0, 0.0, 0.0, 0.0, 0.0, 0.0, 0.0, 0.0, 0.0, 0.0, 1.6369780059558768E9, 0.0, 2021-11-15 04:06:45.955
50.0, -56049.815541483826, -20668.79220828917, -13746.076970824835, -65039.798920130605, 0.0, 0.0, 0.0, 0.0, 0.016, 0.026000000000000002, 1.0, 192.0, 0.0, 0.0, 0.0, 0.0, 0.0, 0.0, 0.0, 0.0, 0.0, 1.636978005955881E9, 0.0, 2021-11-15 04:06:45.955
51.0, -56032.202366853046, -20665.685315809886, -13746.278136524932, -65041.6541149204, 0.0, 0.0, 0.0, 0.0, 0.016, 0.026000000000000002, 1.0, 192.0, 0.0, 0.0, 0.0, 0.0, 0.0, 0.0, 0.0, 0.0, 0.0, 1.6369780059558856E9, 0.0, 2021-11-15 04:06:45.955
52.0, -56023.887517915675, -20666.5793855881, -13728.150871771679, -65026.20905950178, 0.0, 0.0, 0.0, 0.0, 0.016, 0.026000000000000002, 1.0, 192.0, 0.0, 0.0, 0.0, 0.0, 0.0, 0.0, 0.0, 0.0, 0.0, 1.63697800595589E9, 0.0, 2021-11-15 04:06:45.955
53.0, -56004.26268628391, -20648.787397001674, -13705.217981960534, -65008.57353312654, 0.0, 0.0, 0.0, 0.0, 0.016, 0.026000000000000002, 1.0, 192.0, 0.0, 0.0, 0.0, 0.0, 0.0, 0.0, 0.0, 0.0, 0.0, 1.6369780059558952E9, 0.0, 2021-11-15 04:06:45.955
54.0, -55997.0654245693, -20630.481318292776, -13694.824420788816, -64997.95645451027, 0.0, 0.0, 0.0, 0.0, 0.016, 0.026000000000000002, 1.0, 192.0, 0.0, 0.0, 0.0, 0.0, 0.0, 0.0, 0.0, 0.0, 0.0, 1.6369780059558997E9, 0.0, 2021-11-15 04:06:45.955
55.0, -56013.06927359931, -20649.547356313153, -13719.85837457876, -65023.102167022495, 0.0, 0.0, 0.0, 0.0, 0.016, 0.026000000000000002, 1.0, 192.0, 0.0, 0.0, 0.0, 0.0, 0.0, 0.0, 0.0, 0.0, 0.0, 1.636978005955904E9, 0.0, 2021-11-15 04:06:45.955
56.0, -56053.50357931895, -20695.56959814663, -13779.604587507796, -65082.446048551334, 0.0, 0.0, 0.0, 0.0, 0.02, 0.02, 0.996, 192.0, 0.0, 160.0, 0.0, 160.0, 31.0, 32.0, 0.0, 0.0, 0.0, 1.6369780059559083E9, 0.0, 2021-11-15 04:06:45.955
57.0, -56006.22963979598, -20652.542490070166, -13718.785490844904, -65024.82325134555, 0.0, 0.0, 0.0, 0.0, 0.02, 0.02, 0.996, 192.0, 0.0, 0.0, 0.0, 0.0, 0.0, 0.0, 0.0, 0.0, 0.0, 1.6369780059559128E9, 0.0, 2021-11-15 04:06:45.955
58.0, -55971.517380656886, -20590.5611026956, -13640.50968176242, -64932.53289848959, 0.0, 0.0, 0.0, 0.0, 0.02, 0.02, 0.996, 192.0, 0.0, 0.0, 0.0, 0.0, 0.0, 0.0, 0.0, 0.0, 0.0, 1.6369780059559171E9, 0.0, 2021-11-15 04:06:45.955
59.0, -56010.387064264665, -20620.490088521256, -13688.632987574696, -64975.38119261041, 0.0, 0.0, 0.0, 0.0, 0.02, 0.02, 0.996, 192.0, 0.0, 0.0, 0.0, 0.0, 0.0, 0.0, 0.0, 0.0, 0.0, 1.6369780059559216E9, 0.0, 2021-11-15 04:06:45.955
60.0, -56023.395779537655, -20653.83889124857, -13725.468662437042, -65019.950571054294, 0.0, 0.0, 0.0, 0.0, 0.02, 0.02, 0.996, 192.0, 0.0, 0.0, 0.0, 0.0, 0.0, 0.0, 0.0, 0.0, 0.0, 1.6369780059559257E9, 0.0, 2021-11-15 04:06:45.955
61.0, -55992.05863381131, -20639.444367819353, -13697.75249931246, -65002.4938586347, 0.0, 0.0, 0.0, 0.0, 0.02, 0.02, 0.996, 192.0, 0.0, 0.0, 0.0, 0.0, 0.0, 0.0, 0.0, 0.0, 0.0, 1.6369780059559302E9, 0.0, 2021-11-15 04:06:45.955
62.0, -55998.965322848, -20625.69804497934, -13685.727260795506, -64984.992442726194, 0.0, 0.0, 0.0, 0.0, 0.02, 0.02, 0.996, 192.0, 0.0, 0.0, 0.0, 0.0, 0.0, 0.0, 0.0, 0.0, 0.0, 1.6369780059559343E9, 0.0, 2021-11-15 04:06:45.955
63.0, -56024.82629118279, -20643.601792288042, -13717.042054777392, -65008.57353312654, 0.0, 0.0, 0.0, 0.0, 0.02, 0.02, 0.996, 192.0, 0.0, 0.0, 0.0, 0.0, 0.0, 0.0, 0.0, 0.0, 0.0, 1.636978005955939E9, 0.0, 2021-11-15 04:06:45.955
64.0, -56028.89430867366, -20661.46083610783, -13734.521118941442, -65027.19253625781, 0.0, 0.0, 0.0, 0.0, 0.02, 0.02, 0.996, 192.0, 0.0, 0.0, 0.0, 0.0, 0.0, 0.0, 0.0, 0.0, 0.0, 1.636978005955943E9, 0.0, 2021-11-15 04:06:45.955
65.0, -56017.85254691274, -20659.203309917844, -13720.618333890241, -65018.31889370905, 0.0, 0.0, 0.0, 0.0, 0.02, 0.02, 0.996, 192.0, 0.0, 0.0, 0.0, 0.0, 0.0, 0.0, 0.0, 0.0, 0.0, 1.6369780059559476E9, 0.0, 2021-11-15 04:06:45.955
66.0, -56045.99339318197, -20658.398647117454, -13726.00510430397, -65015.45787041877, 0.0, 0.0, 0.0, 0.0, 0.02, 0.026000000000000002, 0.996, 192.0, 0.0, 160.0, 0.0, 208.0, 31.0, 32.0, 0.0, 0.0, 0.0, 1.636978005955952E9, 0.0, 2021-11-15 04:06:45.955
67.0, -56013.113977088215, -20638.259725363223, -13714.985694287503, -65011.36750118346, 0.0, 0.0, 0.0, 0.0, 0.02, 0.026000000000000002, 0.996, 192.0, 0.0, 0.0, 0.0, 0.0, 0.0, 0.0, 0.0, 0.0, 0.0, 1.6369780059559577E9, 0.0, 2021-11-15 04:06:45.955
68.0, -55995.79137513535, -20641.836004476074, -13717.19851698858, -65017.20130648629, 0.0, 0.0, 0.0, 0.0, 0.02, 0.026000000000000002, 0.996, 192.0, 0.0, 0.0, 0.0, 0.0, 0.0, 0.0, 0.0, 0.0, 0.0, 1.636978005955962E9, 0.0, 2021-11-15 04:06:45.955
69.0, -56013.963343377516, -20657.95161222835, -13727.905002582671, -65026.11965252396, 0.0, 0.0, 0.0, 0.0, 0.02, 0.026000000000000002, 0.996, 192.0, 0.0, 0.0, 0.0, 0.0, 0.0, 0.0, 0.0, 0.0, 0.0, 1.6369780059559662E9, 0.0, 2021-11-15 04:06:45.955
70.0, -56026.07798887229, -20654.688257537873, -13727.502671182476, -65029.941800825814, 0.0, 0.0, 0.0, 0.0, 0.02, 0.026000000000000002, 0.996, 192.0, 0.0, 0.0, 0.0, 0.0, 0.0, 0.0, 0.0, 0.0, 0.0, 1.6369780059559703E9, 0.0, 2021-11-15 04:06:45.955
71.0, -56020.870032414205, -20633.767024727706, -13707.788432572894, -65002.20328595678, 0.0, 0.0, 0.0, 0.0, 0.02, 0.026000000000000002, 0.996, 192.0, 0.0, 0.0, 0.0, 0.0, 0.0, 0.0, 0.0, 0.0, 0.0, 1.6369780059559748E9, 0.0, 2021-11-15 04:06:45.955
72.0, -56045.65811701514, -20660.589118074076, -13745.942860358104, -65028.48893743622, 0.0, 0.0, 0.0, 0.0, 0.02, 0.026000000000000002, 0.996, 192.0, 0.0, 0.0, 0.0, 0.0, 0.0, 0.0, 0.0, 0.0, 0.0, 1.636978005955979E9, 0.0, 2021-11-15 04:06:45.955
73.0, -56030.66009648563, -20673.486074624787, -13752.648383694695, -65055.13221682695, 0.0, 0.0, 0.0, 0.0, 0.02, 0.026000000000000002, 0.996, 192.0, 0.0, 0.0, 0.0, 0.0, 0.0, 0.0, 0.0, 0.0, 0.0, 1.6369780059559836E9, 0.0, 2021-11-15 04:06:45.955
74.0, -55980.815706350295, -20625.586286257065, -13678.619406058719, -64985.551236337575, 0.0, 0.0, 0.0, 0.0, 0.02, 0.026000000000000002, 0.996, 192.0, 0.0, 0.0, 0.0, 0.0, 0.0, 0.0, 0.0, 0.0, 0.0, 1.636978005955988E9, 0.0, 2021-11-15 04:06:45.955
75.0, -56002.38513974967, -20625.966265912804, -13695.204400444556, -64990.513323606654, 0.0, 0.0, 0.0, 0.0, 0.02, 0.026000000000000002, 0.996, 192.0, 0.0, 0.0, 0.0, 0.0, 0.0, 0.0, 0.0, 0.0, 0.0, 1.6369780059559925E9, 0.0, 2021-11-15 04:06:45.955
76.0, -55997.870087369694, -20628.961399669817, -13694.37738589971, -64991.1391724514, 0.0, 0.0, 0.0, 0.0, 0.026000000000000002, 0.02, 0.996, 192.0, 0.0, 208.0, 0.0, 160.0, 31.0, 32.0, 0.0, 0.0, 0.0, 1.6369780059559968E9, 0.0, 2021-11-15 04:06:45.955
77.0, -55997.870087369694, -20649.234431890778, -13707.587266872797, -65009.4452511603, 0.0, 0.0, 0.0, 0.0, 0.026000000000000002, 0.02, 0.996, 192.0, 0.0, 0.0, 0.0, 0.0, 0.0, 0.0, 0.0, 0.0, 0.0, 1.6369780059560013E9, 0.0, 2021-11-15 04:06:45.956
78.0, -56008.353055519234, -20658.08572269508, -13713.890458809194, -65016.97778904174, 0.0, 0.0, 0.0, 0.0, 0.026000000000000002, 0.02, 0.996, 192.0, 0.0, 0.0, 0.0, 0.0, 0.0, 0.0, 0.0, 0.0, 0.0, 1.6369780059560053E9, 0.0, 2021-11-15 04:06:45.956
79.0, -56038.43850355608, -20666.534682099187, -13735.973982331036, -65034.45685320579, 0.0, 0.0, 0.0, 0.0, 0.026000000000000002, 0.02, 0.996, 192.0, 0.0, 0.0, 0.0, 0.0, 0.0, 0.0, 0.0, 0.0, 0.0, 1.6369780059560099E9, 0.0, 2021-11-15 04:06:45.956
80.0, -56047.87093971622, -20678.001127004758, -13753.318936028354, -65048.02436209016, 0.0, 0.0, 0.0, 0.0, 0.026000000000000002, 0.02, 0.996, 192.0, 0.0, 0.0, 0.0, 0.0, 0.0, 0.0, 0.0, 0.0, 0.0, 1.6369780059560142E9, 0.0, 2021-11-15 04:06:45.956
81.0, -56046.75335249345, -20690.316938199634, -13756.515235485464, -65052.91939412587, 0.0, 0.0, 0.0, 0.0, 0.026000000000000002, 0.02, 0.996, 192.0, 0.0, 0.0, 0.0, 0.0, 0.0, 0.0, 0.0, 0.0, 0.0, 1.6369780059560184E9, 0.0, 2021-11-15 04:06:45.956
82.0, -56037.656192500144, -20676.66002233744, -13729.00023806098, -65027.19253625781, 0.0, 0.0, 0.0, 0.0, 0.026000000000000002, 0.02, 0.996, 192.0, 0.0, 0.0, 0.0, 0.0, 0.0, 0.0, 0.0, 0.0, 0.0, 1.6369780059560227E9, 0.0, 2021-11-15 04:06:45.956
83.0, -56049.77083799492, -20669.23924317828, -13733.112959040756, -65027.505460680186, 0.0, 0.0, 0.0, 0.0, 0.026000000000000002, 0.02, 0.996, 192.0, 0.0, 0.0, 0.0, 0.0, 0.0, 0.0, 0.0, 0.0, 0.0, 1.6369780059560275E9, 0.0, 2021-11-15 04:06:45.956
84.0, -56059.20327415506, -20680.37041191702, -13753.162473817167, -65044.135158554935, 0.0, 0.0, 0.0, 0.0, 0.026000000000000002, 0.02, 0.996, 192.0, 0.0, 0.0, 0.0, 0.0, 0.0, 0.0, 0.0, 0.0, 0.0, 1.636978005956032E9, 0.0, 2021-11-15 04:06:45.956
85.0, -56074.58127434031, -20710.075880298125, -13786.265407355477, -65077.93099617136, 0.0, 0.0, 0.0, 0.0, 0.026000000000000002, 0.02, 0.996, 192.0, 0.0, 0.0, 0.0, 0.0, 0.0, 0.0, 0.0, 0.0, 0.0, 1.6369780059560363E9, 0.0, 2021-11-15 04:06:45.956
86.0, -56080.996224998984, -20720.20122053638, -13795.273160370965, -65092.05729866711, 0.0, 0.0, 0.0, 0.0, 0.018000000000000002, 0.024, 0.996, 192.0, 0.0, 144.0, 0.0, 192.0, 31.0, 32.0, 0.0, 0.0, 0.0, 1.6369780059560409E9, 0.0, 2021-11-15 04:06:45.956
87.0, -56072.323748150324, -20689.020537021224, -13755.755276173983, -65052.42765574785, 0.0, 0.0, 0.0, 0.0, 0.018000000000000002, 0.024, 0.996, 192.0, 0.0, 0.0, 0.0, 0.0, 0.0, 0.0, 0.0, 0.0, 0.0, 1.6369780059560452E9, 0.0, 2021-11-15 04:06:45.956
88.0, -56044.294660603366, -20659.873862251505, -13728.463796194053, -65021.20226874379, 0.0, 0.0, 0.0, 0.0, 0.018000000000000002, 0.024, 0.996, 192.0, 0.0, 0.0, 0.0, 0.0, 0.0, 0.0, 0.0, 0.0, 0.0, 1.63697800595605E9, 0.0, 2021-11-15 04:06:45.956
89.0, -56017.69608470155, -20653.637725548473, -13717.511441410952, -65009.66876860485, 0.0, 0.0, 0.0, 0.0, 0.018000000000000002, 0.024, 0.996, 192.0, 0.0, 0.0, 0.0, 0.0, 0.0, 0.0, 0.0, 0.0, 0.0, 1.6369780059560552E9, 0.0, 2021-11-15 04:06:45.956
90.0, -56006.14023281816, -20662.08668495258, -13724.462833936554, -65027.68427463583, 0.0, 0.0, 0.0, 0.0, 0.018000000000000002, 0.024, 0.996, 192.0, 0.0, 0.0, 0.0, 0.0, 0.0, 0.0, 0.0, 0.0, 0.0, 1.6369780059560597E9, 0.0, 2021-11-15 04:06:45.956
91.0, -56032.67175348661, -20677.688202582383, -13749.317973770854, -65055.71336218278, 0.0, 0.0, 0.0, 0.0, 0.018000000000000002, 0.024, 0.996, 192.0, 0.0, 0.0, 0.0, 0.0, 0.0, 0.0, 0.0, 0.0, 0.0, 1.636978005956064E9, 0.0, 2021-11-15 04:06:45.956
92.0, -56042.73003849149, -20671.876749024006, -13741.092531811302, -65036.75908288468, 0.0, 0.0, 0.0, 0.0, 0.018000000000000002, 0.024, 0.996, 192.0, 0.0, 0.0, 0.0, 0.0, 0.0, 0.0, 0.0, 0.0, 0.0, 1.6369780059560683E9, 0.0, 2021-11-15 04:06:45.956
93.0, -56025.58625049428, -20669.574519345108, -13738.924412599137, -65037.67550440735, 0.0, 0.0, 0.0, 0.0, 0.018000000000000002, 0.024, 0.996, 192.0, 0.0, 0.0, 0.0, 0.0, 0.0, 0.0, 0.0, 0.0, 0.0, 1.6369780059560726E9, 0.0, 2021-11-15 04:06:45.956
94.0, -56028.40257029564, -20682.42677240691, -13746.099322569291, -65049.656039435395, 0.0, 0.0, 0.0, 0.0, 0.018000000000000002, 0.024, 0.996, 192.0, 0.0, 0.0, 0.0, 0.0, 0.0, 0.0, 0.0, 0.0, 0.0, 1.636978005956077E9, 0.0, 2021-11-15 04:06:45.956
95.0, -56048.72030600552, -20684.84076080808, -13750.1449883157, -65050.25953653569, 0.0, 0.0, 0.0, 0.0, 0.018000000000000002, 0.024, 0.996, 192.0, 0.0, 0.0, 0.0, 0.0, 0.0, 0.0, 0.0, 0.0, 0.0, 1.6369780059560812E9, 0.0, 2021-11-15 04:06:45.956
96.0, -56081.19739069908, -20706.47724944082, -13799.140012161733, -65097.08644116956, 0.0, 0.0, 0.0, 0.0, 0.02, 0.022, 0.994, 192.0, 0.0, 160.0, 0.0, 176.0, 31.0, 16.0, 0.0, 0.0, 0.0, 1.6369780059560857E9, 0.0, 2021-11-15 04:06:45.956
97.0, -56063.78538176839, -20703.95150231737, -13792.948578947615, -65094.69480451284, 0.0, 0.0, 0.0, 0.0, 0.02, 0.022, 0.994, 192.0, 0.0, 0.0, 0.0, 0.0, 0.0, 0.0, 0.0, 0.0, 0.0, 1.63697800595609E9, 0.0, 2021-11-15 04:06:45.956
98.0, -56008.353055519234, -20655.358809871534, -13705.016816260437, -65003.70085283528, 0.0, 0.0, 0.0, 0.0, 0.02, 0.022, 0.994, 192.0, 0.0, 0.0, 0.0, 0.0, 0.0, 0.0, 0.0, 0.0, 0.0, 1.6369780059560945E9, 0.0, 2021-11-15 04:06:45.956
99.0, -56034.28107908739, -20664.56772858712, -13716.013874532448, -65012.887419806415, 0.0, 0.0, 0.0, 0.0, 0.02, 0.022, 0.994, 192.0, 0.0, 0.0, 0.0, 0.0, 0.0, 0.0, 0.0, 0.0, 0.0, 1.636978005956099E9, 0.0, 2021-11-15 04:06:45.956
100.0, -56017.36080853472, -20638.550298041144, -13702.848697048272, -65000.370442911444, 0.0, 0.0, 0.0, 0.0, 0.02, 0.022, 0.994, 192.0, 0.0, 0.0, 0.0, 0.0, 0.0, 0.0, 0.0, 0.0, 0.0, 1.636978005956103E9, 0.0, 2021-11-15 04:06:45.956
101.0, -56057.12456192071, -20675.274214181212, -13755.420000007154, -65045.49861496671, 0.0, 0.0, 0.0, 0.0, 0.02, 0.022, 0.994, 192.0, 0.0, 0.0, 0.0, 0.0, 0.0, 0.0, 0.0, 0.0, 0.0, 1.6369780059561183E9, 0.0, 2021-11-15 04:06:45.956
102.0, -56059.51619857743, -20692.507409156253, -13767.24407282401, -65061.83774016354, 0.0, 0.0, 0.0, 0.0, 0.02, 0.022, 0.994, 192.0, 0.0, 0.0, 0.0, 0.0, 0.0, 0.0, 0.0, 0.0, 0.0, 1.636978005956123E9, 0.0, 2021-11-15 04:06:45.956
103.0, -56034.146968620655, -20671.608528090543, -13734.789339874906, -65036.28969625112, 0.0, 0.0, 0.0, 0.0, 0.02, 0.022, 0.994, 192.0, 0.0, 0.0, 0.0, 0.0, 0.0, 0.0, 0.0, 0.0, 0.0, 1.6369780059561276E9, 0.0, 2021-11-15 04:06:45.956
104.0, -56031.911794175125, -20655.023533704705, -13724.351075214277, -65024.353864711986, 0.0, 0.0, 0.0, 0.0, 0.02, 0.022, 0.994, 192.0, 0.0, 0.0, 0.0, 0.0, 0.0, 0.0, 0.0, 0.0, 0.0, 1.636978005956132E9, 0.0, 2021-11-15 04:06:45.956
105.0, -56002.496898471945, -20636.94097244036, -13707.85548780626, -65007.18772497031, 0.0, 0.0, 0.0, 0.0, 0.018000000000000002, 0.022, 0.998, 192.0, 0.0, 144.0, 0.0, 176.0, 31.0, 48.0, 0.0, 0.0, 0.0, 1.6369780059561365E9, 0.0, 2021-11-15 04:06:45.956
106.0, -56019.43952076907, -20657.459873850334, -13728.419092705142, -65025.78437635713, 0.0, 0.0, 0.0, 0.0, 0.018000000000000002, 0.022, 0.998, 192.0, 0.0, 0.0, 0.0, 0.0, 0.0, 0.0, 0.0, 0.0, 0.0, 1.636978005956141E9, 0.0, 2021-11-15 04:06:45.956
107.0, -56041.992430924474, -20669.79803678966, -13735.415188719653, -65031.03703630412, 0.0, 0.0, 0.0, 0.0, 0.018000000000000002, 0.022, 0.998, 192.0, 0.0, 0.0, 0.0, 0.0, 0.0, 0.0, 0.0, 0.0, 0.0, 1.6369780059561453E9, 0.0, 2021-11-15 04:06:45.956
108.0, -55995.21022977951, -20623.79814670064, -13685.347281139766, -64984.90303574837, 0.0, 0.0, 0.0, 0.0, 0.018000000000000002, 0.022, 0.998, 192.0, 0.0, 0.0, 0.0, 0.0, 0.0, 0.0, 0.0, 0.0, 0.0, 1.63697800595615E9, 0.0, 2021-11-15 04:06:45.956
109.0, -55992.99740707844, -20625.27336183469, -13696.366691156232, -64992.77084979664, 0.0, 0.0, 0.0, 0.0, 0.018000000000000002, 0.022, 0.998, 192.0, 0.0, 0.0, 0.0, 0.0, 0.0, 0.0, 0.0, 0.0, 0.0, 1.6369780059561543E9, 0.0, 2021-11-15 04:06:45.956
110.0, -56013.94099163306, -20659.85151050705, -13733.090607296303, -65029.53946942562, 0.0, 0.0, 0.0, 0.0, 0.018000000000000002, 0.022, 0.998, 192.0, 0.0, 0.0, 0.0, 0.0, 0.0, 0.0, 0.0, 0.0, 0.0, 1.63697800595616E9, 0.0, 2021-11-15 04:06:45.956
111.0, -56024.69218071606, -20677.755257815752, -13743.707685912572, -65048.73961791273, 0.0, 0.0, 0.0, 0.0, 0.018000000000000002, 0.022, 0.998, 192.0, 0.0, 0.0, 0.0, 0.0, 0.0, 0.0, 0.0, 0.0, 0.0, 1.6369780059561644E9, 0.0, 2021-11-15 04:06:45.956
112.0, -56052.833026985296, -20687.634728864996, -13765.925319901147, -65069.59379548953, 0.0, 0.0, 0.0, 0.0, 0.018000000000000002, 0.022, 0.998, 192.0, 0.0, 0.0, 0.0, 0.0, 0.0, 0.0, 0.0, 0.0, 0.0, 1.636978005956169E9, 0.0, 2021-11-15 04:06:45.956
113.0, -56069.61918707123, -20696.19544699138, -13787.315939344877, -65082.803676462616, 0.0, 0.0, 0.0, 0.0, 0.018000000000000002, 0.022, 0.998, 192.0, 0.0, 0.0, 0.0, 0.0, 0.0, 0.0, 0.0, 0.0, 0.0, 1.6369780059561734E9, 0.0, 2021-11-15 04:06:45.956
114.0, -56039.44433205656, -20687.590025376085, -13763.95836638908, -65066.64336522143, 0.0, 0.0, 0.0, 0.0, 0.018000000000000002, 0.022, 0.998, 192.0, 0.0, 0.0, 0.0, 0.0, 0.0, 0.0, 0.0, 0.0, 0.0, 1.6369780059561777E9, 0.0, 2021-11-15 04:06:45.956
115.0, -56010.744692175955, -20661.304373896644, -13713.733996598006, -65016.55310589709, 0.0, 0.0, 0.0, 0.0, 0.018000000000000002, 0.022, 1.0, 192.0, 0.0, 144.0, 0.0, 176.0, 31.0, 64.0, 0.0, 0.0, 0.0, 1.6369780059561932E9, 0.0, 2021-11-15 04:06:45.956
116.0, -56021.38412253668, -20656.051713949648, -13714.158679742657, -65016.24018147471, 0.0, 0.0, 0.0, 0.0, 0.018000000000000002, 0.022, 1.0, 192.0, 0.0, 0.0, 0.0, 0.0, 0.0, 0.0, 0.0, 0.0, 0.0, 1.6369780059561975E9, 0.0, 2021-11-15 04:06:45.956
117.0, -56036.20332911055, -20658.51040583973, -13732.665924151652, -65029.71828338126, 0.0, 0.0, 0.0, 0.0, 0.018000000000000002, 0.022, 1.0, 192.0, 0.0, 0.0, 0.0, 0.0, 0.0, 0.0, 0.0, 0.0, 0.0, 1.636978005956202E9, 0.0, 2021-11-15 04:06:45.956
118.0, -56045.74752399296, -20677.889368282482, -13755.554110473886, -65051.53358596964, 0.0, 0.0, 0.0, 0.0, 0.018000000000000002, 0.022, 1.0, 192.0, 0.0, 0.0, 0.0, 0.0, 0.0, 0.0, 0.0, 0.0, 0.0, 1.636978005956222E9, 0.0, 2021-11-15 04:06:45.956
119.0, -56037.23150935549, -20679.588100861085, -13746.211081291567, -65042.83875737653, 0.0, 0.0, 0.0, 0.0, 0.018000000000000002, 0.022, 1.0, 192.0, 0.0, 0.0, 0.0, 0.0, 0.0, 0.0, 0.0, 0.0, 0.0, 1.6369780059562263E9, 0.0, 2021-11-15 04:06:45.956
120.0, -56027.19557609506, -20660.834987263082, -13724.28401998091, -65025.046768790104, 0.0, 0.0, 0.0, 0.0, 0.018000000000000002, 0.022, 1.0, 192.0, 0.0, 0.0, 0.0, 0.0, 0.0, 0.0, 0.0, 0.0, 0.0, 1.6369780059562309E9, 0.0, 2021-11-15 04:06:45.956
121.0, -56030.727151718995, -20646.552222556144, -13718.159642000157, -65012.79801282859, 0.0, 0.0, 0.0, 0.0, 0.018000000000000002, 0.022, 1.0, 192.0, 0.0, 0.0, 0.0, 0.0, 0.0, 0.0, 0.0, 0.0, 0.0, 1.6369780064348023E9, 0.0, 2021-11-15 04:06:46.434
122.0, -56038.080875644795, -20660.14208318497, -13730.274287494933, -65020.30819896558, 0.0, 0.0, 0.0, 0.0, 0.018000000000000002, 0.022, 1.0, 192.0, 0.0, 0.0, 0.0, 0.0, 0.0, 0.0, 0.0, 0.0, 0.0, 1.6369780064348528E9, 0.0, 2021-11-15 04:06:46.434
123.0, -56042.193596624566, -20676.950595015358, -13741.24899402249, -65034.61331541697, 0.0, 0.0, 0.0, 0.0, 0.018000000000000002, 0.022, 1.0, 192.0, 0.0, 0.0, 0.0, 0.0, 0.0, 0.0, 0.0, 0.0, 0.0, 1.6369780064349115E9, 0.0, 2021-11-15 04:06:46.434
124.0, -56026.70383771704, -20666.62408907701, -13730.251935750477, -65033.13810028292, 0.0, 0.0, 0.0, 0.0, 0.018000000000000002, 0.022, 1.0, 192.0, 0.0, 0.0, 0.0, 0.0, 0.0, 0.0, 0.0, 0.0, 0.0, 1.636978006434941E9, 0.0, 2021-11-15 04:06:46.434
125.0, -56047.82623622731, -20666.892310010473, -13739.997296332991, -65036.647324162404, 0.0, 0.0, 0.0, 0.0, 0.018000000000000002, 0.02, 1.004, 192.0, 0.0, 144.0, 0.0, 160.0, 31.0, 96.0, 0.0, 0.0, 0.0, 1.6369780064349651E9, 0.0, 2021-11-15 04:06:46.434
126.0, -56063.025422456914, -20682.717345084828, -13756.62699420774, -65051.60064120301, 0.0, 0.0, 0.0, 0.0, 0.018000000000000002, 0.02, 1.004, 192.0, 0.0, 0.0, 0.0, 0.0, 0.0, 0.0, 0.0, 0.0, 0.0, 1.636978006434985E9, 0.0, 2021-11-15 04:06:46.434
127.0, -56022.769930692906, -20668.747504800263, -13729.782549116917, -65029.53946942562, 0.0, 0.0, 0.0, 0.0, 0.018000000000000002, 0.02, 1.004, 192.0, 0.0, 0.0, 0.0, 0.0, 0.0, 0.0, 0.0, 0.0, 0.0, 1.6369780064349966E9, 0.0, 2021-11-15 04:06:46.434
128.0, -56016.6232009677, -20671.876749024006, -13730.877784595226, -65037.139062540424, 0.0, 0.0, 0.0, 0.0, 0.018000000000000002, 0.02, 1.004, 192.0, 0.0, 0.0, 0.0, 0.0, 0.0, 0.0, 0.0, 0.0, 0.0, 1.6369780064350145E9, 0.0, 2021-11-15 04:06:46.435
129.0, -56056.878692731705, -20693.24501672328, -13765.098305356301, -65069.75025770072, 0.0, 0.0, 0.0, 0.0, 0.018000000000000002, 0.02, 1.004, 192.0, 0.0, 0.0, 0.0, 0.0, 0.0, 0.0, 0.0, 0.0, 0.0, 1.6369780064350262E9, 0.0, 2021-11-15 04:06:46.435
130.0, -56055.67169853112, -20696.418964435932, -13771.96029090408, -65074.84645543653, 0.0, 0.0, 0.0, 0.0, 0.018000000000000002, 0.02, 1.004, 192.0, 0.0, 0.0, 0.0, 0.0, 0.0, 0.0, 0.0, 0.0, 0.0, 1.6369780064350307E9, 0.0, 2021-11-15 04:06:46.435
131.0, -56028.31316331782, -20689.400516676968, -13755.934090129625, -65061.614222718985, 0.0, 0.0, 0.0, 0.0, 0.018000000000000002, 0.02, 1.004, 192.0, 0.0, 0.0, 0.0, 0.0, 0.0, 0.0, 0.0, 0.0, 0.0, 1.63697800643504E9, 0.0, 2021-11-15 04:06:46.435
132.0, -56040.04782915686, -20698.67649062592, -13757.431657008132, -65064.765818687185, 0.0, 0.0, 0.0, 0.0, 0.018000000000000002, 0.02, 1.004, 192.0, 0.0, 0.0, 0.0, 0.0, 0.0, 0.0, 0.0, 0.0, 0.0, 1.6369780064350443E9, 0.0, 2021-11-15 04:06:46.435
133.0, -56033.0740848868, -20675.944766514873, -13729.916659583649, -65036.69202765132, 0.0, 0.0, 0.0, 0.0, 0.018000000000000002, 0.02, 1.004, 192.0, 0.0, 0.0, 0.0, 0.0, 0.0, 0.0, 0.0, 0.0, 0.0, 1.6369780064350488E9, 0.0, 2021-11-15 04:06:46.435
134.0, -56026.882651672684, -20664.500673353752, -13721.959438557558, -65018.341245453514, 0.0, 0.0, 0.0, 0.0, 0.018000000000000002, 0.02, 1.004, 192.0, 0.0, 0.0, 0.0, 0.0, 0.0, 0.0, 0.0, 0.0, 0.0, 1.636978006435053E9, 0.0, 2021-11-15 04:06:46.435
135.0, -56046.127503648706, -20694.273196968225, -13755.352944773787, -65051.01949584717, 0.0, 0.0, 0.0, 0.0, 0.02, 0.024, 0.996, 192.0, 0.0, 160.0, 0.0, 192.0, 31.0, 32.0, 0.0, 0.0, 0.0, 1.6369780064350574E9, 0.0, 2021-11-15 04:06:46.435
136.0, -56049.56967229482, -20703.99620580628, -13758.929223886636, -65058.86495815098, 0.0, 0.0, 0.0, 0.0, 0.02, 0.024, 0.996, 192.0, 0.0, 0.0, 0.0, 0.0, 0.0, 0.0, 0.0, 0.0, 0.0, 1.6369780064350617E9, 0.0, 2021-11-15 04:06:46.435
137.0, -56056.588120053784, -20695.94957780237, -13756.53758722992, -65057.18857731683, 0.0, 0.0, 0.0, 0.0, 0.02, 0.024, 0.996, 192.0, 0.0, 0.0, 0.0, 0.0, 0.0, 0.0, 0.0, 0.0, 0.0, 1.636978006435066E9, 0.0, 2021-11-15 04:06:46.435
138.0, -56043.84762571426, -20682.717345084828, -13752.737790672516, -65053.20996680379, 0.0, 0.0, 0.0, 0.0, 0.02, 0.024, 0.996, 192.0, 0.0, 0.0, 0.0, 0.0, 0.0, 0.0, 0.0, 0.0, 0.0, 1.6369780064350705E9, 0.0, 2021-11-15 04:06:46.435
139.0, -56028.53668076238, -20681.3315369286, -13746.300488269388, -65046.63855393393, 0.0, 0.0, 0.0, 0.0, 0.02, 0.024, 0.996, 192.0, 0.0, 0.0, 0.0, 0.0, 0.0, 0.0, 0.0, 0.0, 0.0, 1.6369780064350748E9, 0.0, 2021-11-15 04:06:46.435
140.0, -56038.03617215588, -20696.016633035735, -13749.027401092935, -65053.00880110369, 0.0, 0.0, 0.0, 0.0, 0.02, 0.024, 0.996, 192.0, 0.0, 0.0, 0.0, 0.0, 0.0, 0.0, 0.0, 0.0, 0.0, 1.636978006435079E9, 0.0, 2021-11-15 04:06:46.435
141.0, -56030.05659938534, -20673.441371135876, -13721.802976346371, -65023.929181567335, 0.0, 0.0, 0.0, 0.0, 0.02, 0.024, 0.996, 192.0, 0.0, 0.0, 0.0, 0.0, 0.0, 0.0, 0.0, 0.0, 0.0, 1.6369780064350836E9, 0.0, 2021-11-15 04:06:46.435
142.0, -56045.054619914845, -20670.84856877906, -13733.023552062936, -65026.92431532435, 0.0, 0.0, 0.0, 0.0, 0.02, 0.024, 0.996, 192.0, 0.0, 0.0, 0.0, 0.0, 0.0, 0.0, 0.0, 0.0, 0.0, 1.636978006435088E9, 0.0, 2021-11-15 04:06:46.435
143.0, -56038.66202100063, -20679.18576946089, -13748.558014459375, -65043.933992854836, 0.0, 0.0, 0.0, 0.0, 0.02, 0.024, 0.996, 192.0, 0.0, 0.0, 0.0, 0.0, 0.0, 0.0, 0.0, 0.0, 0.0, 1.6369780064350924E9, 0.0, 2021-11-15 04:06:46.435
144.0, -56020.64651496965, -20679.208121205345, -13738.633839921218, -65042.77170214316, 0.0, 0.0, 0.0, 0.0, 0.022, 0.028, 0.994, 192.0, 0.0, 176.0, 0.0, 224.0, 31.0, 16.0, 0.0, 0.0, 0.0, 1.6369780064350965E9, 0.0, 2021-11-15 04:06:46.435
145.0, -56042.394762324664, -20684.818409063628, -13739.974944588535, -65041.832928876036, 0.0, 0.0, 0.0, 0.0, 0.022, 0.028, 0.994, 192.0, 0.0, 0.0, 0.0, 0.0, 0.0, 0.0, 0.0, 0.0, 0.0, 1.636978006435101E9, 0.0, 2021-11-15 04:06:46.435
146.0, -56077.218780186035, -20697.938883058894, -13771.312090314877, -65063.40236227541, 0.0, 0.0, 0.0, 0.0, 0.022, 0.028, 0.994, 192.0, 0.0, 0.0, 0.0, 0.0, 0.0, 0.0, 0.0, 0.0, 0.0, 1.636978006435105E9, 0.0, 2021-11-15 04:06:46.435
147.0, -56079.20808544256, -20715.216781522846, -13798.78238425045, -65093.68897601235, 0.0, 0.0, 0.0, 0.0, 0.022, 0.028, 0.994, 192.0, 0.0, 0.0, 0.0, 0.0, 0.0, 0.0, 0.0, 0.0, 0.0, 1.6369780064351096E9, 0.0, 2021-11-15 04:06:46.435
148.0, -56052.07306767382, -20706.544304674186, -13769.166322847168, -65068.2079873333, 0.0, 0.0, 0.0, 0.0, 0.022, 0.028, 0.994, 192.0, 0.0, 0.0, 0.0, 0.0, 0.0, 0.0, 0.0, 0.0, 0.0, 1.636978006435114E9, 0.0, 2021-11-15 04:06:46.435
149.0, -56013.65041895514, -20670.312126912133, -13716.304447210367, -65021.47048967725, 0.0, 0.0, 0.0, 0.0, 0.022, 0.028, 0.994, 192.0, 0.0, 0.0, 0.0, 0.0, 0.0, 0.0, 0.0, 0.0, 0.0, 1.6369780064351184E9, 0.0, 2021-11-15 04:06:46.435
150.0, -56028.31316331782, -20660.23149016279, -13716.170336743635, -65012.23921921721, 0.0, 0.0, 0.0, 0.0, 0.022, 0.028, 0.994, 192.0, 0.0, 0.0, 0.0, 0.0, 0.0, 0.0, 0.0, 0.0, 0.0, 1.6369780064351244E9, 0.0, 2021-11-15 04:06:46.435
151.0, -56067.8310475148, -20685.690127097383, -13754.77179941795, -65038.39076022992, 0.0, 0.0, 0.0, 0.0, 0.022, 0.028, 0.994, 192.0, 0.0, 0.0, 0.0, 0.0, 0.0, 0.0, 0.0, 0.0, 0.0, 1.6369780064351432E9, 0.0, 2021-11-15 04:06:46.435
152.0, -56020.71357020302, -20672.90492926895, -13734.230546263523, -65032.959286327285, 0.0, 0.0, 0.0, 0.0, 0.022, 0.028, 0.994, 192.0, 0.0, 0.0, 0.0, 0.0, 0.0, 0.0, 0.0, 0.0, 0.0, 1.6369780064351518E9, 0.0, 2021-11-15 04:06:46.435
153.0, -56018.18782307957, -20676.548263615165, -13739.52790969943, -65047.68908592333, 0.0, 0.0, 0.0, 0.0, 0.022, 0.028, 0.994, 192.0, 0.0, 0.0, 0.0, 0.0, 0.0, 0.0, 0.0, 0.0, 0.0, 1.636978006435158E9, 0.0, 2021-11-15 04:06:46.435
154.0, -56065.72998353601, -20699.86113308205, -13784.119639887767, -65086.67052825339, 0.0, 0.0, 0.0, 0.0, 0.02, 0.03, 0.998, 192.0, 0.0, 160.0, 0.0, 240.0, 31.0, 48.0, 0.0, 0.0, 0.0, 1.6369780064351737E9, 0.0, 2021-11-15 04:06:46.435
155.0, -56056.47636133151, -20691.61333937804, -13766.640575723717, -65064.74346694273, 0.0, 0.0, 0.0, 0.0, 0.02, 0.03, 0.998, 192.0, 0.0, 0.0, 0.0, 0.0, 0.0, 0.0, 0.0, 0.0, 0.0, 1.636978006435178E9, 0.0, 2021-11-15 04:06:46.435
156.0, -56047.647422271664, -20695.681356868907, -13752.983659861526, -65051.84651039202, 0.0, 0.0, 0.0, 0.0, 0.02, 0.03, 0.998, 192.0, 0.0, 0.0, 0.0, 0.0, 0.0, 0.0, 0.0, 0.0, 0.0, 1.6369780064351826E9, 0.0, 2021-11-15 04:06:46.435
157.0, -56042.03713441338, -20696.128391758015, -13740.377275988732, -65043.28579226563, 0.0, 0.0, 0.0, 0.0, 0.02, 0.03, 0.998, 192.0, 0.0, 0.0, 0.0, 0.0, 0.0, 0.0, 0.0, 0.0, 0.0, 1.6369780064351869E9, 0.0, 2021-11-15 04:06:46.435
158.0, -56038.86318670073, -20684.125504985514, -13739.86318586626, -65045.09628356651, 0.0, 0.0, 0.0, 0.0, 0.02, 0.03, 0.998, 192.0, 0.0, 0.0, 0.0, 0.0, 0.0, 0.0, 0.0, 0.0, 0.0, 1.6369780064351912E9, 0.0, 2021-11-15 04:06:46.435
159.0, -56038.773779722906, -20682.04679275117, -13744.780569646427, -65045.58802194453, 0.0, 0.0, 0.0, 0.0, 0.02, 0.03, 0.998, 192.0, 0.0, 0.0, 0.0, 0.0, 0.0, 0.0, 0.0, 0.0, 0.0, 1.6369780064351957E9, 0.0, 2021-11-15 04:06:46.435
160.0, -56046.90981470464, -20695.122563257526, -13755.308241284876, -65049.790149902125, 0.0, 0.0, 0.0, 0.0, 0.02, 0.03, 0.998, 192.0, 0.0, 0.0, 0.0, 0.0, 0.0, 0.0, 0.0, 0.0, 0.0, 1.6369780064352E9, 0.0, 2021-11-15 04:06:46.435
161.0, -56081.04092848789, -20731.33238927512, -13796.480154571553, -65095.47711556878, 0.0, 0.0, 0.0, 0.0, 0.02, 0.03, 0.998, 192.0, 0.0, 0.0, 0.0, 0.0, 0.0, 0.0, 0.0, 0.0, 0.0, 1.6369780064352043E9, 0.0, 2021-11-15 04:06:46.435
162.0, -56061.30433813386, -20700.934016815903, -13756.023497107446, -65058.01559186168, 0.0, 0.0, 0.0, 0.0, 0.02, 0.03, 0.998, 192.0, 0.0, 0.0, 0.0, 0.0, 0.0, 0.0, 0.0, 0.0, 0.0, 1.6369780064352086E9, 0.0, 2021-11-15 04:06:46.435
163.0, -56014.07510209979, -20657.683391294886, -13710.42593841862, -65011.076928505536, 0.0, 0.0, 0.0, 0.0, 0.02, 0.03, 0.998, 192.0, 0.0, 0.0, 0.0, 0.0, 0.0, 0.0, 0.0, 0.0, 0.0, 1.6369780064352129E9, 0.0, 2021-11-15 04:06:46.435
164.0, -56031.59886975275, -20677.643499093476, -13735.392836975197, -65029.36065546998, 0.0, 0.0, 0.0, 0.0, 0.02, 0.024, 0.996, 192.0, 0.0, 160.0, 0.0, 192.0, 31.0, 32.0, 0.0, 0.0, 0.0, 1.6369780064352171E9, 0.0, 2021-11-15 04:06:46.435
165.0, -56045.63576527069, -20698.542380159186, -13752.871901139248, -65050.147777813414, 0.0, 0.0, 0.0, 0.0, 0.02, 0.024, 0.996, 192.0, 0.0, 0.0, 0.0, 0.0, 0.0, 0.0, 0.0, 0.0, 0.0, 1.6369780064352217E9, 0.0, 2021-11-15 04:06:46.435
166.0, -56049.65907927264, -20698.318862714634, -13756.96227037457, -65059.803731418106, 0.0, 0.0, 0.0, 0.0, 0.02, 0.024, 0.996, 192.0, 0.0, 0.0, 0.0, 0.0, 0.0, 0.0, 0.0, 0.0, 0.0, 1.636978006435226E9, 0.0, 2021-11-15 04:06:46.435
167.0, -56070.42384987162, -20699.704670870862, -13770.73094495904, -65064.78817043164, 0.0, 0.0, 0.0, 0.0, 0.02, 0.024, 0.996, 192.0, 0.0, 0.0, 0.0, 0.0, 0.0, 0.0, 0.0, 0.0, 0.0, 1.6369780064352305E9, 0.0, 2021-11-15 04:06:46.435
168.0, -56080.41507964314, -20718.077804813125, -13797.418927838675, -65090.33621434405, 0.0, 0.0, 0.0, 0.0, 0.02, 0.024, 0.996, 192.0, 0.0, 0.0, 0.0, 0.0, 0.0, 0.0, 0.0, 0.0, 0.0, 1.6369780064352348E9, 0.0, 2021-11-15 04:06:46.435
169.0, -56070.781477782904, -20723.86690662705, -13792.188619636134, -65092.28081611167, 0.0, 0.0, 0.0, 0.0, 0.02, 0.024, 0.996, 192.0, 0.0, 0.0, 0.0, 0.0, 0.0, 0.0, 0.0, 0.0, 0.0, 1.6369780064352393E9, 0.0, 2021-11-15 04:06:46.435
170.0, -56024.73688420498, -20677.151760715456, -13722.607639146763, -65029.315951981065, 0.0, 0.0, 0.0, 0.0, 0.02, 0.024, 0.996, 192.0, 0.0, 0.0, 0.0, 0.0, 0.0, 0.0, 0.0, 0.0, 0.0, 1.6369780064352436E9, 0.0, 2021-11-15 04:06:46.435
171.0, -56005.69319792905, -20647.625106289997, -13696.791374300883, -64998.87287603294, 0.0, 0.0, 0.0, 0.0, 0.02, 0.024, 0.996, 192.0, 0.0, 0.0, 0.0, 0.0, 0.0, 0.0, 0.0, 0.0, 0.0, 1.636978006435248E9, 0.0, 2021-11-15 04:06:46.435
172.0, -56040.718381490515, -20672.413190890933, -13734.85639510827, -65025.337341468025, 0.0, 0.0, 0.0, 0.0, 0.02, 0.024, 0.996, 192.0, 0.0, 0.0, 0.0, 0.0, 0.0, 0.0, 0.0, 0.0, 0.0, 1.6369780064352522E9, 0.0, 2021-11-15 04:06:46.435
173.0, -56064.74650677997, -20703.348005217078, -13771.379145548242, -65065.659888465394, 0.0, 0.0, 0.0, 0.0, 0.02, 0.024, 0.996, 192.0, 0.0, 0.0, 0.0, 0.0, 0.0, 0.0, 0.0, 0.0, 0.0, 1.6369780064352565E9, 0.0, 2021-11-15 04:06:46.435
174.0, -56000.6193519377, -20656.431693605387, -13706.179106972111, -65012.753309339685, 0.0, 0.0, 0.0, 0.0, 0.018000000000000002, 0.028, 0.994, 192.0, 0.0, 144.0, 0.0, 224.0, 31.0, 16.0, 0.0, 0.0, 0.0, 1.636978006435262E9, 0.0, 2021-11-15 04:06:46.435
175.0, -56008.576572963786, -20651.13433016948, -13713.577534386819, -65017.40247218639, 0.0, 0.0, 0.0, 0.0, 0.018000000000000002, 0.028, 0.994, 192.0, 0.0, 0.0, 0.0, 0.0, 0.0, 0.0, 0.0, 0.0, 0.0, 1.6369780064352665E9, 0.0, 2021-11-15 04:06:46.435
176.0, -56031.26359358592, -20670.401533889955, -13740.265517266454, -65037.96607708527, 0.0, 0.0, 0.0, 0.0, 0.018000000000000002, 0.028, 0.994, 192.0, 0.0, 0.0, 0.0, 0.0, 0.0, 0.0, 0.0, 0.0, 0.0, 1.6369780064352708E9, 0.0, 2021-11-15 04:06:46.435
177.0, -56037.455026800046, -20692.395650433977, -13758.146912830702, -65058.73084768425, 0.0, 0.0, 0.0, 0.0, 0.018000000000000002, 0.028, 0.994, 192.0, 0.0, 0.0, 0.0, 0.0, 0.0, 0.0, 0.0, 0.0, 0.0, 1.636978006435275E9, 0.0, 2021-11-15 04:06:46.435
178.0, -56047.40155308266, -20705.739641873795, -13764.427753022643, -65071.203121090315, 0.0, 0.0, 0.0, 0.0, 0.018000000000000002, 0.028, 0.994, 192.0, 0.0, 0.0, 0.0, 0.0, 0.0, 0.0, 0.0, 0.0, 0.0, 1.6369780064352794E9, 0.0, 2021-11-15 04:06:46.435
179.0, -56042.88650070268, -20680.124542728012, -13742.277174267432, -65045.051580077605, 0.0, 0.0, 0.0, 0.0, 0.018000000000000002, 0.028, 0.994, 192.0, 0.0, 0.0, 0.0, 0.0, 0.0, 0.0, 0.0, 0.0, 0.0, 1.6369780064352837E9, 0.0, 2021-11-15 04:06:46.435
180.0, -56051.00018393996, -20680.012784005736, -13746.85928188077, -65041.698818409306, 0.0, 0.0, 0.0, 0.0, 0.018000000000000002, 0.028, 0.994, 192.0, 0.0, 0.0, 0.0, 0.0, 0.0, 0.0, 0.0, 0.0, 0.0, 1.636978006435288E9, 0.0, 2021-11-15 04:06:46.435
181.0, -56048.988526938985, -20691.367470189034, -13755.844683151805, -65053.67935343735, 0.0, 0.0, 0.0, 0.0, 0.018000000000000002, 0.028, 0.994, 192.0, 0.0, 0.0, 0.0, 0.0, 0.0, 0.0, 0.0, 0.0, 0.0, 1.6369780064352925E9, 0.0, 2021-11-15 04:06:46.435
182.0, -56036.09157038827, -20688.864074810037, -13742.835967878817, -65048.896080123915, 0.0, 0.0, 0.0, 0.0, 0.018000000000000002, 0.028, 0.994, 192.0, 0.0, 0.0, 0.0, 0.0, 0.0, 0.0, 0.0, 0.0, 0.0, 1.6369780064352968E9, 0.0, 2021-11-15 04:06:46.435
183.0, -56019.953610891534, -20658.845682006562, -13710.269476207433, -65014.74261459621, 0.0, 0.0, 0.0, 0.0, 0.018000000000000002, 0.028, 0.994, 192.0, 0.0, 0.0, 0.0, 0.0, 0.0, 0.0, 0.0, 0.0, 0.0, 1.6369780064353013E9, 0.0, 2021-11-15 04:06:46.435
184.0, -56032.828215697795, -20661.058504707635, -13728.642610149696, -65025.69496937931, 0.0, 0.0, 0.0, 0.0, 0.022, 0.024, 0.996, 192.0, 0.0, 176.0, 0.0, 192.0, 31.0, 32.0, 0.0, 0.0, 0.0, 1.6369780064353054E9, 0.0, 2021-11-15 04:06:46.435
185.0, -56046.35102109326, -20682.225606706812, -13752.134293572224, -65047.420864989865, 0.0, 0.0, 0.0, 0.0, 0.022, 0.024, 0.996, 192.0, 0.0, 0.0, 0.0, 0.0, 0.0, 0.0, 0.0, 0.0, 0.0, 1.63697800643531E9, 0.0, 2021-11-15 04:06:46.435
186.0, -56051.11194266224, -20697.3353859586, -13764.807732678382, -65066.97864138826, 0.0, 0.0, 0.0, 0.0, 0.022, 0.024, 0.996, 192.0, 0.0, 0.0, 0.0, 0.0, 0.0, 0.0, 0.0, 0.0, 0.0, 1.636978006435314E9, 0.0, 2021-11-15 04:06:46.435
187.0, -56056.118733420226, -20691.389821933488, -13760.449142509598, -65063.24590006422, 0.0, 0.0, 0.0, 0.0, 0.022, 0.024, 0.996, 192.0, 0.0, 0.0, 0.0, 0.0, 0.0, 0.0, 0.0, 0.0, 0.0, 1.6369780064353185E9, 0.0, 2021-11-15 04:06:46.435
188.0, -56058.823294499314, -20685.28779569719, -13763.399572777698, -65059.937841884836, 0.0, 0.0, 0.0, 0.0, 0.022, 0.024, 0.996, 192.0, 0.0, 0.0, 0.0, 0.0, 0.0, 0.0, 0.0, 0.0, 0.0, 1.6369780064353228E9, 0.0, 2021-11-15 04:06:46.435
189.0, -56069.55213183787, -20703.348005217078, -13787.2041806226, -65084.23418810776, 0.0, 0.0, 0.0, 0.0, 0.022, 0.024, 0.996, 192.0, 0.0, 0.0, 0.0, 0.0, 0.0, 0.0, 0.0, 0.0, 0.0, 1.6369780064353273E9, 0.0, 2021-11-15 04:06:46.435
190.0, -56076.324710407825, -20722.592857193096, -13802.805698252405, -65105.580104062574, 0.0, 0.0, 0.0, 0.0, 0.022, 0.024, 0.996, 192.0, 0.0, 0.0, 0.0, 0.0, 0.0, 0.0, 0.0, 0.0, 0.0, 1.6369780064353316E9, 0.0, 2021-11-15 04:06:46.435
191.0, -56046.57453853781, -20682.940862529384, -13746.591060947307, -65047.10794056749, 0.0, 0.0, 0.0, 0.0, 0.022, 0.024, 0.996, 192.0, 0.0, 0.0, 0.0, 0.0, 0.0, 0.0, 0.0, 0.0, 0.0, 1.636978006435336E9, 0.0, 2021-11-15 04:06:46.435
192.0, -56029.31899181831, -20646.84279523406, -13707.60961861725, -64997.97880625472, 0.0, 0.0, 0.0, 0.0, 0.022, 0.024, 0.996, 192.0, 0.0, 0.0, 0.0, 0.0, 0.0, 0.0, 0.0, 0.0, 0.0, 1.6369780064353404E9, 0.0, 2021-11-15 04:06:46.435
193.0, -56068.47924810401, -20684.930167785904, -13755.241186051511, -65040.2012515308, 0.0, 0.0, 0.0, 0.0, 0.024, 0.02, 1.0, 192.0, 0.0, 192.0, 0.0, 160.0, 31.0, 64.0, 0.0, 0.0, 0.0, 1.6369780064353447E9, 0.0, 2021-11-15 04:06:46.435
194.0, -56042.685335002585, -20690.741621344285, -13755.688220940618, -65056.42861800535, 0.0, 0.0, 0.0, 0.0, 0.024, 0.02, 1.0, 192.0, 0.0, 0.0, 0.0, 0.0, 0.0, 0.0, 0.0, 0.0, 0.0, 1.63697800643535E9, 0.0, 2021-11-15 04:06:46.435
195.0, -56001.89340137165, -20659.4268273624, -13718.785490844904, -65030.27707699264, 0.0, 0.0, 0.0, 0.0, 0.024, 0.02, 1.0, 192.0, 0.0, 0.0, 0.0, 0.0, 0.0, 0.0, 0.0, 0.0, 0.0, 1.6369780064353566E9, 0.0, 2021-11-15 04:06:46.435
196.0, -56006.542564218355, -20639.80199573064, -13701.731109825507, -65005.399585413885, 0.0, 0.0, 0.0, 0.0, 0.024, 0.02, 1.0, 192.0, 0.0, 0.0, 0.0, 0.0, 0.0, 0.0, 0.0, 0.0, 0.0, 1.636978006435361E9, 0.0, 2021-11-15 04:06:46.435
197.0, -56047.60271878275, -20676.078876981603, -13746.702819669585, -65042.7046469098, 0.0, 0.0, 0.0, 0.0, 0.024, 0.02, 1.0, 192.0, 0.0, 0.0, 0.0, 0.0, 0.0, 0.0, 0.0, 0.0, 0.0, 1.6369780064353654E9, 0.0, 2021-11-15 04:06:46.435
198.0, -56052.36364035173, -20698.22945573681, -13765.746505945506, -65066.19633033232, 0.0, 0.0, 0.0, 0.0, 0.024, 0.02, 1.0, 192.0, 0.0, 0.0, 0.0, 0.0, 0.0, 0.0, 0.0, 0.0, 0.0, 1.6369780064353702E9, 0.0, 2021-11-15 04:06:46.435
199.0, -56009.694160186555, -20669.306298411644, -13724.865165336749, -65036.11088229548, 0.0, 0.0, 0.0, 0.0, 0.024, 0.02, 1.0, 192.0, 0.0, 0.0, 0.0, 0.0, 0.0, 0.0, 0.0, 0.0, 0.0, 1.6369780064353745E9, 0.0, 2021-11-15 04:06:46.435
200.0, -56015.72913118949, -20655.64938254945, -13713.219906475533, -65019.68235012083, 0.0, 0.0, 0.0, 0.0, 0.024, 0.02, 1.0, 192.0, 0.0, 0.0, 0.0, 0.0, 0.0, 0.0, 0.0, 0.0, 0.0, 1.636978006435379E9, 0.0, 2021-11-15 04:06:46.435
201.0, -56024.82629118279, -20663.204272175346, -13729.424921205631, -65028.91362058087, 0.0, 0.0, 0.0, 0.0, 0.024, 0.02, 1.0, 192.0, 0.0, 0.0, 0.0, 0.0, 0.0, 0.0, 0.0, 0.0, 0.0, 1.6369780064353833E9, 0.0, 2021-11-15 04:06:46.435
202.0, -56040.09253264577, -20688.305281198656, -13753.006011605981, -65052.248841792214, 0.0, 0.0, 0.0, 0.0, 0.024, 0.02, 1.0, 192.0, 0.0, 0.0, 0.0, 0.0, 0.0, 0.0, 0.0, 0.0, 0.0, 1.636978006435388E9, 0.0, 2021-11-15 04:06:46.435
203.0, -56037.18680586658, -20690.04871726617, -13744.020610334946, -65049.54428071312, 0.0, 0.0, 0.0, 0.0, 0.024, 0.022, 0.998, 192.0, 0.0, 192.0, 0.0, 176.0, 31.0, 48.0, 0.0, 0.0, 0.0, 1.6369780064353924E9, 0.0, 2021-11-15 04:06:46.435
204.0, -56052.72126826302, -20688.864074810037, -13750.659078438173, -65055.22162380477, 0.0, 0.0, 0.0, 0.0, 0.024, 0.022, 0.998, 192.0, 0.0, 0.0, 0.0, 0.0, 0.0, 0.0, 0.0, 0.0, 0.0, 1.636978006435397E9, 0.0, 2021-11-15 04:06:46.435
205.0, -56052.16247465164, -20685.91364454194, -13758.146912830702, -65057.38974301693, 0.0, 0.0, 0.0, 0.0, 0.024, 0.022, 0.998, 192.0, 0.0, 0.0, 0.0, 0.0, 0.0, 0.0, 0.0, 0.0, 0.0, 1.6369780064354012E9, 0.0, 2021-11-15 04:06:46.435
206.0, -56051.3801635957, -20698.43062143691, -13769.121619358257, -65066.46455126579, 0.0, 0.0, 0.0, 0.0, 0.024, 0.022, 0.998, 192.0, 0.0, 0.0, 0.0, 0.0, 0.0, 0.0, 0.0, 0.0, 0.0, 1.6369780064354055E9, 0.0, 2021-11-15 04:06:46.435
207.0, -56074.62597782922, -20725.52093571674, -13802.917456974681, -65106.02713895168, 0.0, 0.0, 0.0, 0.0, 0.024, 0.022, 0.998, 192.0, 0.0, 0.0, 0.0, 0.0, 0.0, 0.0, 0.0, 0.0, 0.0, 1.63697800643541E9, 0.0, 2021-11-15 04:06:46.435
208.0, -56088.77463206943, -20722.950485104382, -13807.030177954457, -65111.79388902115, 0.0, 0.0, 0.0, 0.0, 0.024, 0.022, 0.998, 192.0, 0.0, 0.0, 0.0, 0.0, 0.0, 0.0, 0.0, 0.0, 0.0, 1.6369780064354143E9, 0.0, 2021-11-15 04:06:46.435
209.0, -56058.01863169893, -20681.219778206323, -13756.090552340813, -65047.24205103422, 0.0, 0.0, 0.0, 0.0, 0.024, 0.022, 0.998, 192.0, 0.0, 0.0, 0.0, 0.0, 0.0, 0.0, 0.0, 0.0, 0.0, 1.6369780064354188E9, 0.0, 2021-11-15 04:06:46.435
210.0, -56042.95355593605, -20685.24309220828, -13750.167340060156, -65043.95634459929, 0.0, 0.0, 0.0, 0.0, 0.024, 0.022, 0.998, 192.0, 0.0, 0.0, 0.0, 0.0, 0.0, 0.0, 0.0, 0.0, 0.0, 1.6369780064354231E9, 0.0, 2021-11-15 04:06:46.435
211.0, -56036.76212272193, -20687.34415618708, -13741.316049255855, -65035.97677182875, 0.0, 0.0, 0.0, 0.0, 0.024, 0.022, 0.998, 192.0, 0.0, 0.0, 0.0, 0.0, 0.0, 0.0, 0.0, 0.0, 0.0, 1.6369780064354277E9, 0.0, 2021-11-15 04:06:46.435
212.0, -56049.480265317, -20685.399554419466, -13742.05365682288, -65039.08366430803, 0.0, 0.0, 0.0, 0.0, 0.024, 0.022, 0.998, 192.0, 0.0, 0.0, 0.0, 0.0, 0.0, 0.0, 0.0, 0.0, 0.0, 1.636978006435432E9, 0.0, 2021-11-15 04:06:46.435
213.0, -56060.90200673366, -20690.831028322107, -13758.48218899753, -65052.49471098122, 0.0, 0.0, 0.0, 0.0, 0.02, 0.016, 0.996, 192.0, 0.0, 160.0, 0.0, 128.0, 31.0, 32.0, 0.0, 0.0, 0.0, 1.6369780064354365E9, 0.0, 2021-11-15 04:06:46.435
214.0, -56055.91756772013, -20703.459763939354, -13774.642500238717, -65071.94072865734, 0.0, 0.0, 0.0, 0.0, 0.02, 0.016, 0.996, 192.0, 0.0, 0.0, 0.0, 0.0, 0.0, 0.0, 0.0, 0.0, 0.0, 1.6369780064354408E9, 0.0, 2021-11-15 04:06:46.435
215.0, -56040.718381490515, -20693.870865568028, -13744.445293479597, -65042.43642597633, 0.0, 0.0, 0.0, 0.0, 0.02, 0.016, 0.996, 192.0, 0.0, 0.0, 0.0, 0.0, 0.0, 0.0, 0.0, 0.0, 0.0, 1.6369780064354453E9, 0.0, 2021-11-15 04:06:46.435
216.0, -56032.73880871997, -20684.349022430066, -13735.370485230744, -65039.62010617496, 0.0, 0.0, 0.0, 0.0, 0.02, 0.016, 0.996, 192.0, 0.0, 0.0, 0.0, 0.0, 0.0, 0.0, 0.0, 0.0, 0.0, 1.6369780064354498E9, 0.0, 2021-11-15 04:06:46.435
217.0, -56038.79613146736, -20676.41415314843, -13740.399627733188, -65038.904850352395, 0.0, 0.0, 0.0, 0.0, 0.02, 0.016, 0.996, 192.0, 0.0, 0.0, 0.0, 0.0, 0.0, 0.0, 0.0, 0.0, 0.0, 1.6369780064354553E9, 0.0, 2021-11-15 04:06:46.435
218.0, -56063.740678279486, -20704.465592439843, -13775.357756061287, -65068.78913268914, 0.0, 0.0, 0.0, 0.0, 0.02, 0.016, 0.996, 192.0, 0.0, 0.0, 0.0, 0.0, 0.0, 0.0, 0.0, 0.0, 0.0, 1.6369780064354599E9, 0.0, 2021-11-15 04:06:46.435
219.0, -56083.90195177817, -20732.67349394244, -13796.882485971748, -65092.14670564493, 0.0, 0.0, 0.0, 0.0, 0.02, 0.016, 0.996, 192.0, 0.0, 0.0, 0.0, 0.0, 0.0, 0.0, 0.0, 0.0, 0.0, 1.6369780064354641E9, 0.0, 2021-11-15 04:06:46.435
220.0, -56036.58330876628, -20694.94374930188, -13742.38893298971, -65046.862071378484, 0.0, 0.0, 0.0, 0.0, 0.02, 0.016, 0.996, 192.0, 0.0, 0.0, 0.0, 0.0, 0.0, 0.0, 0.0, 0.0, 0.0, 1.6369780064354687E9, 0.0, 2021-11-15 04:06:46.435
221.0, -56034.169320365116, -20681.3315369286, -13739.460854466064, -65041.430597475846, 0.0, 0.0, 0.0, 0.0, 0.02, 0.016, 0.996, 192.0, 0.0, 0.0, 0.0, 0.0, 0.0, 0.0, 0.0, 0.0, 0.0, 1.636978006435473E9, 0.0, 2021-11-15 04:06:46.435
222.0, -56048.38502983869, -20697.04481328068, -13763.399572777698, -65060.295469796125, 0.0, 0.0, 0.0, 0.0, 0.02, 0.016, 0.996, 192.0, 0.0, 0.0, 0.0, 0.0, 0.0, 0.0, 0.0, 0.0, 0.0, 1.6369780064354775E9, 0.0, 2021-11-15 04:06:46.435
223.0, -56054.732925264, -20715.52970594522, -13775.290700827922, -65074.77940020316, 0.0, 0.0, 0.0, 0.0, 0.016, 0.016, 0.996, 192.0, 0.0, 128.0, 0.0, 128.0, 31.0, 32.0, 0.0, 0.0, 0.0, 1.6369780064354818E9, 0.0, 2021-11-15 04:06:46.435
224.0, -56058.197445654565, -20719.731833902817, -13770.686241470128, -65077.23809209325, 0.0, 0.0, 0.0, 0.0, 0.016, 0.016, 0.996, 192.0, 0.0, 0.0, 0.0, 0.0, 0.0, 0.0, 0.0, 0.0, 0.0, 1.6369780064354863E9, 0.0, 2021-11-15 04:06:46.435
225.0, -56063.24893990147, -20701.783383105205, -13758.325726786343, -65059.46845525128, 0.0, 0.0, 0.0, 0.0, 0.016, 0.016, 0.996, 192.0, 0.0, 0.0, 0.0, 0.0, 0.0, 0.0, 0.0, 0.0, 0.0, 1.6369780064354906E9, 0.0, 2021-11-15 04:06:46.435
226.0, -56070.28973940489, -20703.81739185064, -13767.422886779654, -65059.40140001791, 0.0, 0.0, 0.0, 0.0, 0.016, 0.016, 0.996, 192.0, 0.0, 0.0, 0.0, 0.0, 0.0, 0.0, 0.0, 0.0, 0.0, 1.636978006435495E9, 0.0, 2021-11-15 04:06:46.435
227.0, -56051.424867084614, -20706.47724944082, -13765.075953611846, -65062.105961097004, 0.0, 0.0, 0.0, 0.0, 0.016, 0.016, 0.996, 192.0, 0.0, 0.0, 0.0, 0.0, 0.0, 0.0, 0.0, 0.0, 0.0, 1.6369780064354994E9, 0.0, 2021-11-15 04:06:46.435
228.0, -56056.72223052052, -20720.156517047468, -13779.671642741161, -65084.39065031894, 0.0, 0.0, 0.0, 0.0, 0.016, 0.016, 0.996, 192.0, 0.0, 0.0, 0.0, 0.0, 0.0, 0.0, 0.0, 0.0, 0.0, 1.6369780064355037E9, 0.0, 2021-11-15 04:06:46.435
229.0, -56062.06429744534, -20709.29356924219, -13777.1011921288, -65083.429525307365, 0.0, 0.0, 0.0, 0.0, 0.016, 0.016, 0.996, 192.0, 0.0, 0.0, 0.0, 0.0, 0.0, 0.0, 0.0, 0.0, 0.0, 1.6369780064355083E9, 0.0, 2021-11-15 04:06:46.435
230.0, -56058.219797399026, -20712.37810997702, -13786.980663178047, -65093.44310682334, 0.0, 0.0, 0.0, 0.0, 0.016, 0.016, 0.996, 192.0, 0.0, 0.0, 0.0, 0.0, 0.0, 0.0, 0.0, 0.0, 0.0, 1.6369780064355125E9, 0.0, 2021-11-15 04:06:46.435
231.0, -56061.46080034504, -20722.43639498191, -13778.263482840477, -65078.22156884928, 0.0, 0.0, 0.0, 0.0, 0.016, 0.016, 0.996, 192.0, 0.0, 0.0, 0.0, 0.0, 0.0, 0.0, 0.0, 0.0, 0.0, 1.636978006435517E9, 0.0, 2021-11-15 04:06:46.435
232.0, -56061.59491081178, -20719.82124088064, -13758.750409930994, -65057.36739127248, 0.0, 0.0, 0.0, 0.0, 0.02, 0.022, 0.996, 192.0, 0.0, 160.0, 0.0, 176.0, 31.0, 32.0, 0.0, 0.0, 0.0, 1.6369780064355214E9, 0.0, 2021-11-15 04:06:46.435
233.0, -56085.757146567965, -20724.068072327147, -13778.732869474039, -65071.67250772387, 0.0, 0.0, 0.0, 0.0, 0.02, 0.022, 0.996, 192.0, 0.0, 0.0, 0.0, 0.0, 0.0, 0.0, 0.0, 0.0, 0.0, 1.636978006435526E9, 0.0, 2021-11-15 04:06:46.435
234.0, -56098.72115835204, -20736.339180033112, -13810.427643111665, -65108.91051398641, 0.0, 0.0, 0.0, 0.0, 0.02, 0.022, 0.996, 192.0, 0.0, 0.0, 0.0, 0.0, 0.0, 0.0, 0.0, 0.0, 0.0, 1.6369780064355302E9, 0.0, 2021-11-15 04:06:46.435
235.0, -56083.946655267086, -20731.645313697496, -13792.076860913858, -65092.0125951782, 0.0, 0.0, 0.0, 0.0, 0.02, 0.022, 0.996, 192.0, 0.0, 0.0, 0.0, 0.0, 0.0, 0.0, 0.0, 0.0, 0.0, 1.6369780064355347E9, 0.0, 2021-11-15 04:06:46.435
236.0, -56050.1284659062, -20708.511258186252, -13747.596889447796, -65046.39268474492, 0.0, 0.0, 0.0, 0.0, 0.02, 0.022, 0.996, 192.0, 0.0, 0.0, 0.0, 0.0, 0.0, 0.0, 0.0, 0.0, 0.0, 1.636978006435539E9, 0.0, 2021-11-15 04:06:46.435
237.0, -56044.04879141436, -20701.358699960554, -13745.272308024445, -65052.22649004775, 0.0, 0.0, 0.0, 0.0, 0.02, 0.022, 0.996, 192.0, 0.0, 0.0, 0.0, 0.0, 0.0, 0.0, 0.0, 0.0, 0.0, 1.6369780064355433E9, 0.0, 2021-11-15 04:06:46.435
238.0, -56053.86120723024, -20698.47532492582, -13753.296584283898, -65056.74154242773, 0.0, 0.0, 0.0, 0.0, 0.02, 0.022, 0.996, 192.0, 0.0, 0.0, 0.0, 0.0, 0.0, 0.0, 0.0, 0.0, 0.0, 1.6369780064355493E9, 0.0, 2021-11-15 04:06:46.435
239.0, -56031.82238719731, -20687.075935253615, -13736.421017220142, -65038.03313231863, 0.0, 0.0, 0.0, 0.0, 0.02, 0.022, 0.996, 192.0, 0.0, 0.0, 0.0, 0.0, 0.0, 0.0, 0.0, 0.0, 0.0, 1.6369780064355536E9, 0.0, 2021-11-15 04:06:46.435
240.0, -56047.06627691582, -20712.82514486613, -13762.997241377503, -65068.07387686657, 0.0, 0.0, 0.0, 0.0, 0.02, 0.022, 0.996, 192.0, 0.0, 0.0, 0.0, 0.0, 0.0, 0.0, 0.0, 0.0, 0.0, 1.636978006435558E9, 0.0, 2021-11-15 04:06:46.435
241.0, -56061.88548348969, -20717.76488039075, -13769.47924726954, -65076.96987115978, 0.0, 0.0, 0.0, 0.0, 0.02, 0.022, 0.996, 192.0, 0.0, 0.0, 0.0, 0.0, 0.0, 0.0, 0.0, 0.0, 0.0, 1.636978006915654E9, 0.0, 2021-11-15 04:06:46.915
242.0, -56077.55405635286, -20712.556923932665, -13776.29652932841, -65075.96404265929, 0.0, 0.0, 0.0, 0.0, 0.022, 0.028, 0.994, 192.0, 0.0, 176.0, 0.0, 224.0, 31.0, 16.0, 0.0, 0.0, 0.0, 1.6369780069157712E9, 0.0, 2021-11-15 04:06:46.915
243.0, -56094.58608562781, -20731.28768578621, -13800.503468573508, -65095.030080679666, 0.0, 0.0, 0.0, 0.0, 0.022, 0.028, 0.994, 192.0, 0.0, 0.0, 0.0, 0.0, 0.0, 0.0, 0.0, 0.0, 0.0, 1.636978006915776E9, 0.0, 2021-11-15 04:06:46.915
244.0, -56075.698861563076, -20738.887278901017, -13800.928151718159, -65106.83180175207, 0.0, 0.0, 0.0, 0.0, 0.022, 0.028, 0.994, 192.0, 0.0, 0.0, 0.0, 0.0, 0.0, 0.0, 0.0, 0.0, 0.0, 1.6369780069157805E9, 0.0, 2021-11-15 04:06:46.915
245.0, -56050.866073473226, -20711.305226243167, -13755.688220940618, -65058.753199428706, 0.0, 0.0, 0.0, 0.0, 0.022, 0.028, 0.994, 192.0, 0.0, 0.0, 0.0, 0.0, 0.0, 0.0, 0.0, 0.0, 0.0, 1.6369780069157853E9, 0.0, 2021-11-15 04:06:46.915
246.0, -56068.32278589282, -20707.48307794131, -13766.43941002362, -65064.02821112016, 0.0, 0.0, 0.0, 0.0, 0.022, 0.028, 0.994, 192.0, 0.0, 0.0, 0.0, 0.0, 0.0, 0.0, 0.0, 0.0, 0.0, 1.6369780069157898E9, 0.0, 2021-11-15 04:06:46.915
247.0, -56073.35192839527, -20711.52874368772, -13776.542398517418, -65071.85132167952, 0.0, 0.0, 0.0, 0.0, 0.022, 0.028, 0.994, 192.0, 0.0, 0.0, 0.0, 0.0, 0.0, 0.0, 0.0, 0.0, 0.0, 1.6369780069157944E9, 0.0, 2021-11-15 04:06:46.915
248.0, -56050.933128706594, -20709.606493664563, -13764.070125111357, -65067.11275185499, 0.0, 0.0, 0.0, 0.0, 0.022, 0.028, 0.994, 192.0, 0.0, 0.0, 0.0, 0.0, 0.0, 0.0, 0.0, 0.0, 0.0, 1.6369780069158096E9, 0.0, 2021-11-15 04:06:46.915
249.0, -56042.126541391204, -20709.874714598027, -13755.1964825626, -65065.97281288777, 0.0, 0.0, 0.0, 0.0, 0.022, 0.028, 0.994, 192.0, 0.0, 0.0, 0.0, 0.0, 0.0, 0.0, 0.0, 0.0, 0.0, 1.6369780069158144E9, 0.0, 2021-11-15 04:06:46.915
250.0, -56061.37139336722, -20707.19250526339, -13764.15953208918, -65068.25269082221, 0.0, 0.0, 0.0, 0.0, 0.022, 0.028, 0.994, 192.0, 0.0, 0.0, 0.0, 0.0, 0.0, 0.0, 0.0, 0.0, 0.0, 1.6369780069158187E9, 0.0, 2021-11-15 04:06:46.915
251.0, -56103.48207992102, -20735.19924106589, -13808.147765177222, -65102.89789472794, 0.0, 0.0, 0.0, 0.0, 0.022, 0.028, 0.994, 192.0, 0.0, 0.0, 0.0, 0.0, 0.0, 0.0, 0.0, 0.0, 0.0, 1.636978006915823E9, 0.0, 2021-11-15 04:06:46.915
252.0, -56102.945638054094, -20748.2973633167, -13819.994189738536, -65114.520801844694, 0.0, 0.0, 0.0, 0.0, 0.02, 0.026000000000000002, 0.998, 192.0, 0.0, 160.0, 0.0, 208.0, 31.0, 48.0, 0.0, 0.0, 0.0, 1.6369780069158275E9, 0.0, 2021-11-15 04:06:46.915
253.0, -56057.2810241319, -20722.190525792903, -13776.29652932841, -65082.69191774034, 0.0, 0.0, 0.0, 0.0, 0.02, 0.026000000000000002, 0.998, 192.0, 0.0, 0.0, 0.0, 0.0, 0.0, 0.0, 0.0, 0.0, 0.0, 1.636978006915832E9, 0.0, 2021-11-15 04:06:46.915
254.0, -56043.84762571426, -20696.642481880484, -13750.77083716045, -65062.955327386306, 0.0, 0.0, 0.0, 0.0, 0.02, 0.026000000000000002, 0.998, 192.0, 0.0, 0.0, 0.0, 0.0, 0.0, 0.0, 0.0, 0.0, 0.0, 1.6369780069158363E9, 0.0, 2021-11-15 04:06:46.915
255.0, -56023.01579988191, -20667.696972810863, -13719.165470500646, -65020.576419899044, 0.0, 0.0, 0.0, 0.0, 0.02, 0.026000000000000002, 0.998, 192.0, 0.0, 0.0, 0.0, 0.0, 0.0, 0.0, 0.0, 0.0, 0.0, 1.636978006915852E9, 0.0, 2021-11-15 04:06:46.915
0.0, -56041.41128556863, -20693.11090625655, -13750.48026448253, -65045.744484155715, 0.0, 0.0, 0.0, 0.0, 0.02, 0.026000000000000002, 0.998, 192.0, 0.0, 0.0, 0.0, 0.0, 0.0, 0.0, 0.0, 0.0, 0.0, 1.636978006915858E9, 0.0, 2021-11-15 04:06:46.915
1.0, -56054.1294281637, -20719.62007518054, -13774.597796749807, -65081.70844098431, 0.0, 0.0, 0.0, 0.0, 0.02, 0.026000000000000002, 0.998, 192.0, 0.0, 0.0, 0.0, 0.0, 0.0, 0.0, 0.0, 0.0, 0.0, 1.6369780069158657E9, 0.0, 2021-11-15 04:06:46.915
2.0, -56048.340326349775, -20701.425755193923, -13749.362677259765, -65057.009763361195, 0.0, 0.0, 0.0, 0.0, 0.02, 0.026000000000000002, 0.998, 192.0, 0.0, 0.0, 0.0, 0.0, 0.0, 0.0, 0.0, 0.0, 0.0, 1.6369780069158723E9, 0.0, 2021-11-15 04:06:46.915
3.0, -56064.25476840196, -20701.89514182748, -13758.236319808522, -65054.72988542675, 0.0, 0.0, 0.0, 0.0, 0.02, 0.026000000000000002, 0.998, 192.0, 0.0, 0.0, 0.0, 0.0, 0.0, 0.0, 0.0, 0.0, 0.0, 1.6369780069158852E9, 0.0, 2021-11-15 04:06:46.915
4.0, -56092.14974548218, -20736.4956422443, -13799.877619728759, -65095.00772893521, 0.0, 0.0, 0.0, 0.0, 0.02, 0.026000000000000002, 0.998, 192.0, 0.0, 0.0, 0.0, 0.0, 0.0, 0.0, 0.0, 0.0, 0.0, 1.6369780069158897E9, 0.0, 2021-11-15 04:06:46.915
5.0, -56081.353852910266, -20737.747339933794, -13791.808639980394, -65091.45380156682, 0.0, 0.0, 0.0, 0.0, 0.02, 0.026000000000000002, 0.998, 192.0, 0.0, 0.0, 0.0, 0.0, 0.0, 0.0, 0.0, 0.0, 0.0, 1.6369780069158945E9, 0.0, 2021-11-15 04:06:46.915
6.0, -56046.95451819355, -20703.280949983713, -13746.635764436218, -65048.85137663501, 0.0, 0.0, 0.0, 0.0, 0.018000000000000002, 0.024, 1.002, 192.0, 0.0, 144.0, 0.0, 192.0, 31.0, 80.0, 0.0, 0.0, 0.0, 1.6369780069158988E9, 0.0, 2021-11-15 04:06:46.915
7.0, -56064.29947189087, -20702.43158369441, -13759.331555286832, -65056.07099009407, 0.0, 0.0, 0.0, 0.0, 0.018000000000000002, 0.024, 1.002, 192.0, 0.0, 0.0, 0.0, 0.0, 0.0, 0.0, 0.0, 0.0, 0.0, 1.636978006915904E9, 0.0, 2021-11-15 04:06:46.915
8.0, -56057.437486343086, -20708.198333763878, -13768.205197835588, -65066.084571610045, 0.0, 0.0, 0.0, 0.0, 0.018000000000000002, 0.024, 1.002, 192.0, 0.0, 0.0, 0.0, 0.0, 0.0, 0.0, 0.0, 0.0, 0.0, 1.6369780069159088E9, 0.0, 2021-11-15 04:06:46.915
9.0, -56054.19648339707, -20715.86498211205, -13770.038040880925, -65071.71721121278, 0.0, 0.0, 0.0, 0.0, 0.018000000000000002, 0.024, 1.002, 192.0, 0.0, 0.0, 0.0, 0.0, 0.0, 0.0, 0.0, 0.0, 0.0, 1.6369780069159133E9, 0.0, 2021-11-15 04:06:46.915
10.0, -56069.70859404905, -20722.212877537357, -13776.609453750785, -65080.702612483816, 0.0, 0.0, 0.0, 0.0, 0.018000000000000002, 0.024, 1.002, 192.0, 0.0, 0.0, 0.0, 0.0, 0.0, 0.0, 0.0, 0.0, 0.0, 1.636978006915918E9, 0.0, 2021-11-15 04:06:46.915
11.0, -56090.96510302605, -20724.313941516157, -13793.507372558997, -65092.303167856124, 0.0, 0.0, 0.0, 0.0, 0.018000000000000002, 0.024, 1.002, 192.0, 0.0, 0.0, 0.0, 0.0, 0.0, 0.0, 0.0, 0.0, 0.0, 1.6369780069159224E9, 0.0, 2021-11-15 04:06:46.915
12.0, -56113.56271667036, -20751.784235451727, -13831.88531778876, -65129.60822935203, 0.0, 0.0, 0.0, 0.0, 0.018000000000000002, 0.024, 1.002, 192.0, 0.0, 0.0, 0.0, 0.0, 0.0, 0.0, 0.0, 0.0, 0.0, 1.6369780069159267E9, 0.0, 2021-11-15 04:06:46.915
13.0, -56085.95831226806, -20747.91738366096, -13815.25561991401, -65118.49941235774, 0.0, 0.0, 0.0, 0.0, 0.018000000000000002, 0.024, 1.002, 192.0, 0.0, 0.0, 0.0, 0.0, 0.0, 0.0, 0.0, 0.0, 0.0, 1.6369780069159312E9, 0.0, 2021-11-15 04:06:46.915
14.0, -56058.91270147714, -20713.093365799592, -13758.48218899753, -65059.11082733999, 0.0, 0.0, 0.0, 0.0, 0.018000000000000002, 0.024, 1.002, 192.0, 0.0, 0.0, 0.0, 0.0, 0.0, 0.0, 0.0, 0.0, 0.0, 1.6369780069159358E9, 0.0, 2021-11-15 04:06:46.915
15.0, -56082.538495366396, -20707.796002363684, -13764.114828600268, -65057.79207441713, 0.0, 0.0, 0.0, 0.0, 0.018000000000000002, 0.024, 1.002, 192.0, 0.0, 0.0, 0.0, 0.0, 0.0, 0.0, 0.0, 0.0, 0.0, 1.6369780069159403E9, 0.0, 2021-11-15 04:06:46.915
16.0, -56059.91852997763, -20702.990377305792, -13766.126485601246, -65062.44123726383, 0.0, 0.0, 0.0, 0.0, 0.014, 0.024, 1.002, 192.0, 0.0, 112.0, 0.0, 192.0, 31.0, 80.0, 0.0, 0.0, 0.0, 1.6369780069159448E9, 0.0, 2021-11-15 04:06:46.915
17.0, -56065.30530039136, -20723.263409526757, -13787.53945678943, -65084.12242938548, 0.0, 0.0, 0.0, 0.0, 0.014, 0.024, 1.002, 192.0, 0.0, 0.0, 0.0, 0.0, 0.0, 0.0, 0.0, 0.0, 0.0, 1.636978006915949E9, 0.0, 2021-11-15 04:06:46.915
18.0, -56075.7882685409, -20732.561735220163, -13788.478230056553, -65090.760897488704, 0.0, 0.0, 0.0, 0.0, 0.014, 0.024, 1.002, 192.0, 0.0, 0.0, 0.0, 0.0, 0.0, 0.0, 0.0, 0.0, 0.0, 1.6369780069159536E9, 0.0, 2021-11-15 04:06:46.915
19.0, -56085.80185005687, -20730.66183694146, -13798.312997616888, -65099.723947015285, 0.0, 0.0, 0.0, 0.0, 0.014, 0.024, 1.002, 192.0, 0.0, 0.0, 0.0, 0.0, 0.0, 0.0, 0.0, 0.0, 0.0, 1.636978006915958E9, 0.0, 2021-11-15 04:06:46.915
20.0, -56096.441280417595, -20734.10400558758, -13809.01948321098, -65101.668548782895, 0.0, 0.0, 0.0, 0.0, 0.014, 0.024, 1.002, 192.0, 0.0, 0.0, 0.0, 0.0, 0.0, 0.0, 0.0, 0.0, 0.0, 1.6369780069159625E9, 0.0, 2021-11-15 04:06:46.915
21.0, -56061.17022766713, -20719.329502502624, -13773.279043826944, -65072.05248737962, 0.0, 0.0, 0.0, 0.0, 0.014, 0.024, 1.002, 192.0, 0.0, 0.0, 0.0, 0.0, 0.0, 0.0, 0.0, 0.0, 0.0, 1.6369780069159667E9, 0.0, 2021-11-15 04:06:46.915
22.0, -56038.349096578255, -20711.796964621182, -13752.603680205784, -65063.648231464416, 0.0, 0.0, 0.0, 0.0, 0.014, 0.024, 1.002, 192.0, 0.0, 0.0, 0.0, 0.0, 0.0, 0.0, 0.0, 0.0, 0.0, 1.6369780069159715E9, 0.0, 2021-11-15 04:06:46.915
23.0, -56046.14985539316, -20695.703708613364, -13734.744636385994, -65036.379103228945, 0.0, 0.0, 0.0, 0.0, 0.014, 0.024, 1.002, 192.0, 0.0, 0.0, 0.0, 0.0, 0.0, 0.0, 0.0, 0.0, 0.0, 1.6369780069159758E9, 0.0, 2021-11-15 04:06:46.915
24.0, -56065.95350098056, -20703.75033661727, -13757.543415730408, -65050.572460958065, 0.0, 0.0, 0.0, 0.0, 0.014, 0.024, 1.002, 192.0, 0.0, 0.0, 0.0, 0.0, 0.0, 0.0, 0.0, 0.0, 0.0, 1.6369780069159803E9, 0.0, 2021-11-15 04:06:46.915
25.0, -56070.155628938155, -20724.135127560512, -13787.338291089332, -65082.28958634014, 0.0, 0.0, 0.0, 0.0, 0.02, 0.028, 1.004, 192.0, 0.0, 160.0, 0.0, 224.0, 31.0, 96.0, 0.0, 0.0, 0.0, 1.6369780069159863E9, 0.0, 2021-11-15 04:06:46.915
26.0, -56082.24792268848, -20747.11272086057, -13812.036968712446, -65117.13595594597, 0.0, 0.0, 0.0, 0.0, 0.02, 0.028, 1.004, 192.0, 0.0, 0.0, 0.0, 0.0, 0.0, 0.0, 0.0, 0.0, 0.0, 1.6369780069159908E9, 0.0, 2021-11-15 04:06:46.915
27.0, -56076.034137729905, -20727.465537484353, -13780.63276775274, -65090.04564166613, 0.0, 0.0, 0.0, 0.0, 0.02, 0.028, 1.004, 192.0, 0.0, 0.0, 0.0, 0.0, 0.0, 0.0, 0.0, 0.0, 0.0, 1.6369780069159951E9, 0.0, 2021-11-15 04:06:46.915
28.0, -56058.89034973268, -20697.24597898078, -13745.562880702362, -65041.140024797925, 0.0, 0.0, 0.0, 0.0, 0.02, 0.028, 1.004, 192.0, 0.0, 0.0, 0.0, 0.0, 0.0, 0.0, 0.0, 0.0, 0.0, 1.6369780069159997E9, 0.0, 2021-11-15 04:06:46.915
29.0, -56049.2790996169, -20708.04187155269, -13760.471494254052, -65058.28381279515, 0.0, 0.0, 0.0, 0.0, 0.02, 0.028, 1.004, 192.0, 0.0, 0.0, 0.0, 0.0, 0.0, 0.0, 0.0, 0.0, 0.0, 1.636978006916004E9, 0.0, 2021-11-15 04:06:46.916
30.0, -56055.87286423122, -20724.67156942744, -13774.240168838522, -65077.88629268245, 0.0, 0.0, 0.0, 0.0, 0.02, 0.028, 1.004, 192.0, 0.0, 0.0, 0.0, 0.0, 0.0, 0.0, 0.0, 0.0, 0.0, 1.6369780069160087E9, 0.0, 2021-11-15 04:06:46.916
31.0, -56064.925320735616, -20720.961179847858, -13772.921415915658, -65078.93682467185, 0.0, 0.0, 0.0, 0.0, 0.02, 0.028, 1.004, 192.0, 0.0, 0.0, 0.0, 0.0, 0.0, 0.0, 0.0, 0.0, 0.0, 1.636978006916013E9, 0.0, 2021-11-15 04:06:46.916
32.0, -56085.71244307905, -20720.536496703207, -13786.310110844388, -65084.681222996864, 0.0, 0.0, 0.0, 0.0, 0.02, 0.028, 1.004, 192.0, 0.0, 0.0, 0.0, 0.0, 0.0, 0.0, 0.0, 0.0, 0.0, 1.6369780069160175E9, 0.0, 2021-11-15 04:06:46.916
33.0, -56091.23332395951, -20731.95823811987, -13798.916494717181, -65093.59956903453, 0.0, 0.0, 0.0, 0.0, 0.02, 0.028, 1.004, 192.0, 0.0, 0.0, 0.0, 0.0, 0.0, 0.0, 0.0, 0.0, 0.0, 1.636978006916022E9, 0.0, 2021-11-15 04:06:46.916
34.0, -56079.99039649849, -20731.377092764033, -13787.025366666958, -65082.40134506242, 0.0, 0.0, 0.0, 0.0, 0.02, 0.028, 1.004, 192.0, 0.0, 0.0, 0.0, 0.0, 0.0, 0.0, 0.0, 0.0, 0.0, 1.6369780069160264E9, 0.0, 2021-11-15 04:06:46.916
35.0, -56083.924303522625, -20732.271162542245, -13786.3548143333, -65084.27889159667, 0.0, 0.0, 0.0, 0.0, 0.016, 0.02, 1.0, 192.0, 0.0, 128.0, 0.0, 160.0, 31.0, 64.0, 0.0, 0.0, 0.0, 1.636978006916072E9, 0.0, 2021-11-15 04:06:46.916
36.0, -56079.453954631565, -20714.076842555623, -13774.866017683271, -65071.98543214625, 0.0, 0.0, 0.0, 0.0, 0.016, 0.02, 1.0, 192.0, 0.0, 0.0, 0.0, 0.0, 0.0, 0.0, 0.0, 0.0, 0.0, 1.636978006916077E9, 0.0, 2021-11-15 04:06:46.916
37.0, -56067.69693704807, -20716.602589679074, -13784.119639887767, -65080.702612483816, 0.0, 0.0, 0.0, 0.0, 0.016, 0.02, 1.0, 192.0, 0.0, 0.0, 0.0, 0.0, 0.0, 0.0, 0.0, 0.0, 0.0, 1.6369780069160812E9, 0.0, 2021-11-15 04:06:46.916
38.0, -56068.25573065945, -20735.06513059916, -13797.530686560953, -65098.56165630361, 0.0, 0.0, 0.0, 0.0, 0.016, 0.02, 1.0, 192.0, 0.0, 0.0, 0.0, 0.0, 0.0, 0.0, 0.0, 0.0, 0.0, 1.6369780069160857E9, 0.0, 2021-11-15 04:06:46.916
39.0, -56079.67747207612, -20737.881450400528, -13787.427698067153, -65089.442144565845, 0.0, 0.0, 0.0, 0.0, 0.016, 0.02, 1.0, 192.0, 0.0, 0.0, 0.0, 0.0, 0.0, 0.0, 0.0, 0.0, 0.0, 1.6369780069161012E9, 0.0, 2021-11-15 04:06:46.916
40.0, -56087.27706519092, -20724.58216244962, -13781.191561364123, -65079.92030142788, 0.0, 0.0, 0.0, 0.0, 0.016, 0.02, 1.0, 192.0, 0.0, 0.0, 0.0, 0.0, 0.0, 0.0, 0.0, 0.0, 0.0, 1.6369780069161055E9, 0.0, 2021-11-15 04:06:46.916
41.0, -56074.89419876268, -20719.932999602916, -13786.980663178047, -65085.30707184161, 0.0, 0.0, 0.0, 0.0, 0.016, 0.02, 1.0, 192.0, 0.0, 0.0, 0.0, 0.0, 0.0, 0.0, 0.0, 0.0, 0.0, 1.63697800691611E9, 0.0, 2021-11-15 04:06:46.916
42.0, -56103.5938386433, -20754.48879653082, -13826.006808997014, -65120.60047633654, 0.0, 0.0, 0.0, 0.0, 0.016, 0.02, 1.0, 192.0, 0.0, 0.0, 0.0, 0.0, 0.0, 0.0, 0.0, 0.0, 0.0, 1.6369780069161143E9, 0.0, 2021-11-15 04:06:46.916
43.0, -56103.3926729432, -20756.656915742984, -13813.69099780214, -65112.64325531045, 0.0, 0.0, 0.0, 0.0, 0.016, 0.02, 1.0, 192.0, 0.0, 0.0, 0.0, 0.0, 0.0, 0.0, 0.0, 0.0, 0.0, 1.6369780069161189E9, 0.0, 2021-11-15 04:06:46.916
44.0, -56081.845591288286, -20734.3945782655, -13790.1546108907, -65094.5159905572, 0.0, 0.0, 0.0, 0.0, 0.016, 0.02, 1.0, 192.0, 0.0, 0.0, 0.0, 0.0, 0.0, 0.0, 0.0, 0.0, 0.0, 1.636978006916123E9, 0.0, 2021-11-15 04:06:46.916
45.0, -56069.84270451578, -20717.139031546, -13777.861151440282, -65076.232263592756, 0.0, 0.0, 0.0, 0.0, 0.016, 0.022, 0.996, 192.0, 0.0, 128.0, 0.0, 176.0, 31.0, 32.0, 0.0, 0.0, 0.0, 1.6369780069161274E9, 0.0, 2021-11-15 04:06:46.916
46.0, -56052.90008221866, -20710.277045998224, -13759.219796564556, -65060.295469796125, 0.0, 0.0, 0.0, 0.0, 0.016, 0.022, 0.996, 192.0, 0.0, 0.0, 0.0, 0.0, 0.0, 0.0, 0.0, 0.0, 0.0, 1.6369780069161332E9, 0.0, 2021-11-15 04:06:46.916
47.0, -56042.73003849149, -20711.975778576827, -13760.203273320589, -65068.811484433594, 0.0, 0.0, 0.0, 0.0, 0.016, 0.022, 0.996, 192.0, 0.0, 0.0, 0.0, 0.0, 0.0, 0.0, 0.0, 0.0, 0.0, 1.6369780069161377E9, 0.0, 2021-11-15 04:06:46.916
48.0, -56053.727096763505, -20704.33148197311, -13755.084723840324, -65058.79790291761, 0.0, 0.0, 0.0, 0.0, 0.016, 0.022, 0.996, 192.0, 0.0, 0.0, 0.0, 0.0, 0.0, 0.0, 0.0, 0.0, 0.0, 1.636978006916142E9, 0.0, 2021-11-15 04:06:46.916
49.0, -56075.72121330753, -20713.830973366617, -13773.01082289348, -65065.86105416549, 0.0, 0.0, 0.0, 0.0, 0.016, 0.022, 0.996, 192.0, 0.0, 0.0, 0.0, 0.0, 0.0, 0.0, 0.0, 0.0, 0.0, 1.6369780069161465E9, 0.0, 2021-11-15 04:06:46.916
50.0, -56093.98258852751, -20738.976685878835, -13799.095308672824, -65089.866827710495, 0.0, 0.0, 0.0, 0.0, 0.016, 0.022, 0.996, 192.0, 0.0, 0.0, 0.0, 0.0, 0.0, 0.0, 0.0, 0.0, 0.0, 1.6369780069161508E9, 0.0, 2021-11-15 04:06:46.916
51.0, -56090.518068136946, -20748.72204646135, -13804.68324478665, -65102.9649499613, 0.0, 0.0, 0.0, 0.0, 0.016, 0.022, 0.996, 192.0, 0.0, 0.0, 0.0, 0.0, 0.0, 0.0, 0.0, 0.0, 0.0, 1.636978006916155E9, 0.0, 2021-11-15 04:06:46.916
52.0, -56074.58127434031, -20725.856211883573, -13782.622073009263, -65085.038850908146, 0.0, 0.0, 0.0, 0.0, 0.016, 0.022, 0.996, 192.0, 0.0, 0.0, 0.0, 0.0, 0.0, 0.0, 0.0, 0.0, 0.0, 1.6369780069161594E9, 0.0, 2021-11-15 04:06:46.916
53.0, -56094.29551294989, -20729.90187762998, -13799.475288328564, -65095.74533650224, 0.0, 0.0, 0.0, 0.0, 0.016, 0.022, 0.996, 192.0, 0.0, 0.0, 0.0, 0.0, 0.0, 0.0, 0.0, 0.0, 0.0, 1.6369780069161637E9, 0.0, 2021-11-15 04:06:46.916
54.0, -56101.24690547549, -20748.610287739073, -13821.469404872585, -65118.879392013485, 0.0, 0.0, 0.0, 0.0, 0.016, 0.022, 0.996, 192.0, 0.0, 0.0, 0.0, 0.0, 0.0, 0.0, 0.0, 0.0, 0.0, 1.636978006916168E9, 0.0, 2021-11-15 04:06:46.916
55.0, -56084.81837330084, -20749.57141275065, -13810.248829156022, -65112.39738612144, 0.0, 0.0, 0.0, 0.0, 0.02, 0.024, 0.992, 192.0, 0.0, 160.0, 0.0, 192.0, 31.0, 0.0, 0.0, 0.0, 0.0, 1.6369780069161725E9, 0.0, 2021-11-15 04:06:46.916
56.0, -56067.60753007025, -20724.604514194074, -13772.004994392992, -65073.415943791384, 0.0, 0.0, 0.0, 0.0, 0.02, 0.024, 0.992, 192.0, 0.0, 0.0, 0.0, 0.0, 0.0, 0.0, 0.0, 0.0, 0.0, 1.6369780069161768E9, 0.0, 2021-11-15 04:06:46.916
57.0, -56085.51127737895, -20723.66574092695, -13786.801849222406, -65082.06606889559, 0.0, 0.0, 0.0, 0.0, 0.02, 0.024, 0.992, 192.0, 0.0, 0.0, 0.0, 0.0, 0.0, 0.0, 0.0, 0.0, 0.0, 1.636978006916181E9, 0.0, 2021-11-15 04:06:46.916
58.0, -56095.86013506176, -20737.970857378346, -13806.940770976636, -65099.20985689281, 0.0, 0.0, 0.0, 0.0, 0.02, 0.024, 0.992, 192.0, 0.0, 0.0, 0.0, 0.0, 0.0, 0.0, 0.0, 0.0, 0.0, 1.6369780069161856E9, 0.0, 2021-11-15 04:06:46.916
59.0, -56110.88050733573, -20764.569433280165, -13825.425663641176, -65120.332255403075, 0.0, 0.0, 0.0, 0.0, 0.02, 0.024, 0.992, 192.0, 0.0, 0.0, 0.0, 0.0, 0.0, 0.0, 0.0, 0.0, 0.0, 1.6369780069162152E9, 0.0, 2021-11-15 04:06:46.916
60.0, -56121.20701327408, -20770.15736939399, -13831.55004162193, -65131.68694158637, 0.0, 0.0, 0.0, 0.0, 0.02, 0.024, 0.992, 192.0, 0.0, 0.0, 0.0, 0.0, 0.0, 0.0, 0.0, 0.0, 0.0, 1.636978006916231E9, 0.0, 2021-11-15 04:06:46.916
61.0, -56132.74051341302, -20757.662744243473, -13823.726931062572, -65115.83955476756, 0.0, 0.0, 0.0, 0.0, 0.02, 0.024, 0.992, 192.0, 0.0, 0.0, 0.0, 0.0, 0.0, 0.0, 0.0, 0.0, 0.0, 1.6369780069162354E9, 0.0, 2021-11-15 04:06:46.916
62.0, -56119.53063243993, -20756.96984016536, -13822.586992095352, -65111.92799948788, 0.0, 0.0, 0.0, 0.0, 0.02, 0.024, 0.992, 192.0, 0.0, 0.0, 0.0, 0.0, 0.0, 0.0, 0.0, 0.0, 0.0, 1.63697800691624E9, 0.0, 2021-11-15 04:06:46.916
63.0, -56096.664797862155, -20761.842520456616, -13826.02916074147, -65125.4731566278, 0.0, 0.0, 0.0, 0.0, 0.02, 0.024, 0.992, 192.0, 0.0, 0.0, 0.0, 0.0, 0.0, 0.0, 0.0, 0.0, 0.0, 1.6369780069162445E9, 0.0, 2021-11-15 04:06:46.916
64.0, -56086.606512857266, -20748.431473783432, -13793.373262092266, -65097.22055163629, 0.0, 0.0, 0.0, 0.0, 0.018000000000000002, 0.026000000000000002, 0.996, 192.0, 0.0, 144.0, 0.0, 208.0, 31.0, 32.0, 0.0, 0.0, 0.0, 1.6369780069162595E9, 0.0, 2021-11-15 04:06:46.916
65.0, -56103.638542132205, -20742.932944647426, -13798.312997616888, -65097.66758652539, 0.0, 0.0, 0.0, 0.0, 0.018000000000000002, 0.026000000000000002, 0.996, 192.0, 0.0, 0.0, 0.0, 0.0, 0.0, 0.0, 0.0, 0.0, 0.0, 1.636978006916264E9, 0.0, 2021-11-15 04:06:46.916
66.0, -56079.92334126513, -20726.370302006042, -13787.986491678535, -65081.77549621767, 0.0, 0.0, 0.0, 0.0, 0.018000000000000002, 0.026000000000000002, 0.996, 192.0, 0.0, 0.0, 0.0, 0.0, 0.0, 0.0, 0.0, 0.0, 0.0, 1.6369780069162688E9, 0.0, 2021-11-15 04:06:46.916
67.0, -56076.6376348302, -20741.167156835458, -13796.97189294957, -65097.913455714406, 0.0, 0.0, 0.0, 0.0, 0.018000000000000002, 0.026000000000000002, 0.996, 192.0, 0.0, 0.0, 0.0, 0.0, 0.0, 0.0, 0.0, 0.0, 0.0, 1.6369780069162748E9, 0.0, 2021-11-15 04:06:46.916
68.0, -56087.210009957555, -20753.035933141226, -13802.559829063395, -65108.105851186025, 0.0, 0.0, 0.0, 0.0, 0.018000000000000002, 0.026000000000000002, 0.996, 192.0, 0.0, 0.0, 0.0, 0.0, 0.0, 0.0, 0.0, 0.0, 0.0, 1.6369780069162793E9, 0.0, 2021-11-15 04:06:46.916
69.0, -56113.87564109274, -20746.017485382257, -13798.424756339164, -65090.895007955434, 0.0, 0.0, 0.0, 0.0, 0.018000000000000002, 0.026000000000000002, 0.996, 192.0, 0.0, 0.0, 0.0, 0.0, 0.0, 0.0, 0.0, 0.0, 0.0, 1.6369780069162836E9, 0.0, 2021-11-15 04:06:46.916
70.0, -56131.757036656985, -20758.44505529941, -13825.202146196621, -65112.285627399164, 0.0, 0.0, 0.0, 0.0, 0.018000000000000002, 0.026000000000000002, 0.996, 192.0, 0.0, 0.0, 0.0, 0.0, 0.0, 0.0, 0.0, 0.0, 0.0, 1.636978006916288E9, 0.0, 2021-11-15 04:06:46.916
71.0, -56099.86109731926, -20756.34399132061, -13821.73762580605, -65117.02419722369, 0.0, 0.0, 0.0, 0.0, 0.018000000000000002, 0.026000000000000002, 0.996, 192.0, 0.0, 0.0, 0.0, 0.0, 0.0, 0.0, 0.0, 0.0, 0.0, 1.636978006916293E9, 0.0, 2021-11-15 04:06:46.916
72.0, -56083.164344211145, -20751.11368311807, -13807.521916332475, -65112.084461699065, 0.0, 0.0, 0.0, 0.0, 0.018000000000000002, 0.026000000000000002, 0.996, 192.0, 0.0, 0.0, 0.0, 0.0, 0.0, 0.0, 0.0, 0.0, 0.0, 1.6369780069162972E9, 0.0, 2021-11-15 04:06:46.916
73.0, -56062.01959395643, -20717.854287368573, -13763.757200688982, -65070.06318212309, 0.0, 0.0, 0.0, 0.0, 0.018000000000000002, 0.026000000000000002, 0.996, 192.0, 0.0, 0.0, 0.0, 0.0, 0.0, 0.0, 0.0, 0.0, 0.0, 1.6369780069163015E9, 0.0, 2021-11-15 04:06:46.916
74.0, -56057.996279954474, -20700.66579588244, -13751.91077612767, -65048.98548710174, 0.0, 0.0, 0.0, 0.0, 0.016, 0.022, 0.994, 192.0, 0.0, 128.0, 0.0, 176.0, 31.0, 16.0, 0.0, 0.0, 0.0, 1.636978006916306E9, 0.0, 2021-11-15 04:06:46.916
75.0, -56090.67453034813, -20741.234212068823, -13804.102099430813, -65100.349795860035, 0.0, 0.0, 0.0, 0.0, 0.016, 0.022, 0.994, 192.0, 0.0, 0.0, 0.0, 0.0, 0.0, 0.0, 0.0, 0.0, 0.0, 1.6369780069163103E9, 0.0, 2021-11-15 04:06:46.916
76.0, -56104.82318458834, -20767.363401337076, -13832.578221866874, -65134.79383406566, 0.0, 0.0, 0.0, 0.0, 0.016, 0.022, 0.994, 192.0, 0.0, 0.0, 0.0, 0.0, 0.0, 0.0, 0.0, 0.0, 0.0, 1.6369780069163148E9, 0.0, 2021-11-15 04:06:46.916
77.0, -56104.15263225468, -20756.656915742984, -13815.2109164251, -65117.2700664127, 0.0, 0.0, 0.0, 0.0, 0.016, 0.022, 0.994, 192.0, 0.0, 0.0, 0.0, 0.0, 0.0, 0.0, 0.0, 0.0, 0.0, 1.636978006916319E9, 0.0, 2021-11-15 04:06:46.916
78.0, -56097.40240542918, -20737.590877722607, -13795.250808626512, -65090.87265621098, 0.0, 0.0, 0.0, 0.0, 0.016, 0.022, 0.994, 192.0, 0.0, 0.0, 0.0, 0.0, 0.0, 0.0, 0.0, 0.0, 0.0, 1.6369780069163234E9, 0.0, 2021-11-15 04:06:46.916
79.0, -56104.82318458834, -20756.20988085388, -13818.653085071217, -65113.73849078876, 0.0, 0.0, 0.0, 0.0, 0.016, 0.022, 0.994, 192.0, 0.0, 0.0, 0.0, 0.0, 0.0, 0.0, 0.0, 0.0, 0.0, 1.636978006916328E9, 0.0, 2021-11-15 04:06:46.916
80.0, -56088.17113496913, -20751.180738351435, -13796.904837716203, -65094.87361846848, 0.0, 0.0, 0.0, 0.0, 0.016, 0.022, 0.994, 192.0, 0.0, 0.0, 0.0, 0.0, 0.0, 0.0, 0.0, 0.0, 0.0, 1.6369780069163322E9, 0.0, 2021-11-15 04:06:46.916
81.0, -56088.618169858244, -20744.654028970486, -13789.484058557042, -65087.92222594288, 0.0, 0.0, 0.0, 0.0, 0.016, 0.022, 0.994, 192.0, 0.0, 0.0, 0.0, 0.0, 0.0, 0.0, 0.0, 0.0, 0.0, 1.6369780069163365E9, 0.0, 2021-11-15 04:06:46.916
82.0, -56092.77559432693, -20731.33238927512, -13785.036061410436, -65079.49561828323, 0.0, 0.0, 0.0, 0.0, 0.016, 0.022, 0.994, 192.0, 0.0, 0.0, 0.0, 0.0, 0.0, 0.0, 0.0, 0.0, 0.0, 1.6369780069163408E9, 0.0, 2021-11-15 04:06:46.916
83.0, -56095.256637961465, -20739.11079634557, -13796.860134227292, -65088.615130021, 0.0, 0.0, 0.0, 0.0, 0.016, 0.022, 0.994, 192.0, 0.0, 0.0, 0.0, 0.0, 0.0, 0.0, 0.0, 0.0, 0.0, 1.636978006916356E9, 0.0, 2021-11-15 04:06:46.916
84.0, -56089.24401870299, -20751.717180218362, -13803.565657563884, -65099.70159527083, 0.0, 0.0, 0.0, 0.0, 0.02, 0.022, 0.996, 192.0, 0.0, 160.0, 0.0, 176.0, 31.0, 32.0, 0.0, 0.0, 0.0, 1.6369780069163604E9, 0.0, 2021-11-15 04:06:46.916
85.0, -56108.35476021228, -20761.663706500975, -13810.87467800077, -65108.2176099083, 0.0, 0.0, 0.0, 0.0, 0.02, 0.022, 0.996, 192.0, 0.0, 0.0, 0.0, 0.0, 0.0, 0.0, 0.0, 0.0, 0.0, 1.6369780069163644E9, 0.0, 2021-11-15 04:06:46.916
86.0, -56120.87173710725, -20756.63456399853, -13816.552021092419, -65112.06210995461, 0.0, 0.0, 0.0, 0.0, 0.02, 0.022, 0.996, 192.0, 0.0, 0.0, 0.0, 0.0, 0.0, 0.0, 0.0, 0.0, 0.0, 1.6369780069163687E9, 0.0, 2021-11-15 04:06:46.916
87.0, -56121.341123740815, -20761.462540800876, -13829.448977643131, -65121.673360070396, 0.0, 0.0, 0.0, 0.0, 0.02, 0.022, 0.996, 192.0, 0.0, 0.0, 0.0, 0.0, 0.0, 0.0, 0.0, 0.0, 0.0, 1.636978006916373E9, 0.0, 2021-11-15 04:06:46.916
88.0, -56105.449033433084, -20764.34591583561, -13825.202146196621, -65119.68405481387, 0.0, 0.0, 0.0, 0.0, 0.02, 0.022, 0.996, 192.0, 0.0, 0.0, 0.0, 0.0, 0.0, 0.0, 0.0, 0.0, 0.0, 1.6369780069163775E9, 0.0, 2021-11-15 04:06:46.916
89.0, -56114.546193426395, -20772.21372988388, -13828.510204376007, -65126.88131652848, 0.0, 0.0, 0.0, 0.0, 0.02, 0.022, 0.996, 192.0, 0.0, 0.0, 0.0, 0.0, 0.0, 0.0, 0.0, 0.0, 0.0, 1.6369780069163833E9, 0.0, 2021-11-15 04:06:46.916
90.0, -56105.78430959992, -20752.54419476321, -13817.669608315184, -65117.13595594597, 0.0, 0.0, 0.0, 0.0, 0.02, 0.022, 0.996, 192.0, 0.0, 0.0, 0.0, 0.0, 0.0, 0.0, 0.0, 0.0, 0.0, 1.636978006916387E9, 0.0, 2021-11-15 04:06:46.916
91.0, -56061.72902127851, -20720.82706938113, -13782.555017775896, -65086.62582476447, 0.0, 0.0, 0.0, 0.0, 0.02, 0.022, 0.996, 192.0, 0.0, 0.0, 0.0, 0.0, 0.0, 0.0, 0.0, 0.0, 0.0, 1.6369780069163916E9, 0.0, 2021-11-15 04:06:46.916
92.0, -56054.28589037489, -20724.559810705163, -13773.435506038131, -65078.467438038286, 0.0, 0.0, 0.0, 0.0, 0.02, 0.022, 0.996, 192.0, 0.0, 0.0, 0.0, 0.0, 0.0, 0.0, 0.0, 0.0, 0.0, 1.636978006916396E9, 0.0, 2021-11-15 04:06:46.916
93.0, -56075.36358539625, -20740.831880668626, -13782.309148586888, -65084.10007764102, 0.0, 0.0, 0.0, 0.0, 0.02, 0.022, 0.996, 192.0, 0.0, 0.0, 0.0, 0.0, 0.0, 0.0, 0.0, 0.0, 0.0, 1.6369780069164E9, 0.0, 2021-11-15 04:06:46.916
94.0, -56094.67549260563, -20742.48590975832, -13793.194448136623, -65094.404231834924, 0.0, 0.0, 0.0, 0.0, 0.018000000000000002, 0.022, 0.992, 192.0, 0.0, 144.0, 0.0, 176.0, 31.0, 0.0, 0.0, 0.0, 0.0, 1.6369780069164042E9, 0.0, 2021-11-15 04:06:46.916
95.0, -56112.57923991433, -20749.280840072734, -13815.702654803117, -65108.77640351968, 0.0, 0.0, 0.0, 0.0, 0.018000000000000002, 0.022, 0.992, 192.0, 0.0, 0.0, 0.0, 0.0, 0.0, 0.0, 0.0, 0.0, 0.0, 1.6369780069164083E9, 0.0, 2021-11-15 04:06:46.916
96.0, -56137.121455326254, -20777.309927619688, -13848.380905196776, -65138.03483701168, 0.0, 0.0, 0.0, 0.0, 0.018000000000000002, 0.022, 0.992, 192.0, 0.0, 0.0, 0.0, 0.0, 0.0, 0.0, 0.0, 0.0, 0.0, 1.6369780069164128E9, 0.0, 2021-11-15 04:06:46.916
97.0, -56123.24102201951, -20784.194264911923, -13850.683134875671, -65152.80934009664, 0.0, 0.0, 0.0, 0.0, 0.018000000000000002, 0.022, 0.992, 192.0, 0.0, 0.0, 0.0, 0.0, 0.0, 0.0, 0.0, 0.0, 0.0, 1.6369780069164171E9, 0.0, 2021-11-15 04:06:46.916
98.0, -56118.30128649489, -20769.755037993793, -13828.219631698088, -65136.69373234436, 0.0, 0.0, 0.0, 0.0, 0.018000000000000002, 0.022, 0.992, 192.0, 0.0, 0.0, 0.0, 0.0, 0.0, 0.0, 0.0, 0.0, 0.0, 1.6369780069164214E9, 0.0, 2021-11-15 04:06:46.916
99.0, -56117.76484462796, -20753.460616285876, -13809.488869844541, -65104.30605462862, 0.0, 0.0, 0.0, 0.0, 0.018000000000000002, 0.022, 0.992, 192.0, 0.0, 0.0, 0.0, 0.0, 0.0, 0.0, 0.0, 0.0, 0.0, 1.6369780069164257E9, 0.0, 2021-11-15 04:06:46.916
100.0, -56099.950504297085, -20755.53932852022, -13814.20508792461, -65109.223438408786, 0.0, 0.0, 0.0, 0.0, 0.018000000000000002, 0.022, 0.992, 192.0, 0.0, 0.0, 0.0, 0.0, 0.0, 0.0, 0.0, 0.0, 0.0, 1.63697800691643E9, 0.0, 2021-11-15 04:06:46.916
101.0, -56082.49379187749, -20751.42660754044, -13799.318826117376, -65102.67437728339, 0.0, 0.0, 0.0, 0.0, 0.018000000000000002, 0.022, 0.992, 192.0, 0.0, 0.0, 0.0, 0.0, 0.0, 0.0, 0.0, 0.0, 0.0, 1.6369780069164343E9, 0.0, 2021-11-15 04:06:46.916
102.0, -56098.20706822957, -20752.946526163403, -13802.738643019038, -65107.50235408573, 0.0, 0.0, 0.0, 0.0, 0.018000000000000002, 0.022, 0.992, 192.0, 0.0, 0.0, 0.0, 0.0, 0.0, 0.0, 0.0, 0.0, 0.0, 1.6369780069164383E9, 0.0, 2021-11-15 04:06:46.916
103.0, -56109.517050923954, -20751.404255795987, -13814.763881535993, -65115.90661000093, 0.0, 0.0, 0.0, 0.0, 0.018000000000000002, 0.022, 0.992, 192.0, 0.0, 0.0, 0.0, 0.0, 0.0, 0.0, 0.0, 0.0, 0.0, 1.636978006916443E9, 0.0, 2021-11-15 04:06:46.916
104.0, -56112.40042595869, -20753.30415407469, -13814.026273968968, -65105.60245580703, 0.0, 0.0, 0.0, 0.0, 0.018000000000000002, 0.022, 0.994, 192.0, 0.0, 144.0, 0.0, 176.0, 31.0, 16.0, 0.0, 0.0, 0.0, 1.6369780069164476E9, 0.0, 2021-11-15 04:06:46.916
105.0, -56118.43539696162, -20770.49264556082, -13826.610306097307, -65121.29338041465, 0.0, 0.0, 0.0, 0.0, 0.018000000000000002, 0.022, 0.994, 192.0, 0.0, 0.0, 0.0, 0.0, 0.0, 0.0, 0.0, 0.0, 0.0, 1.6369780073951554E9, 0.0, 2021-11-15 04:06:47.395
106.0, -56106.5442689114, -20761.283726845235, -13809.533573333452, -65113.626732066485, 0.0, 0.0, 0.0, 0.0, 0.018000000000000002, 0.022, 0.994, 192.0, 0.0, 0.0, 0.0, 0.0, 0.0, 0.0, 0.0, 0.0, 0.0, 1.6369780073952205E9, 0.0, 2021-11-15 04:06:47.395
107.0, -56097.424757173634, -20737.76969167825, -13789.707576001594, -65093.04077542315, 0.0, 0.0, 0.0, 0.0, 0.018000000000000002, 0.022, 0.994, 192.0, 0.0, 0.0, 0.0, 0.0, 0.0, 0.0, 0.0, 0.0, 0.0, 1.6369780073953166E9, 0.0, 2021-11-15 04:06:47.395
108.0, -56086.56180936835, -20736.07095909965, -13790.400480079708, -65091.40909807791, 0.0, 0.0, 0.0, 0.0, 0.018000000000000002, 0.022, 0.994, 192.0, 0.0, 0.0, 0.0, 0.0, 0.0, 0.0, 0.0, 0.0, 0.0, 1.636978007395323E9, 0.0, 2021-11-15 04:06:47.395
109.0, -56090.04868150338, -20751.62777324054, -13800.54817206242, -65103.6131505505, 0.0, 0.0, 0.0, 0.0, 0.018000000000000002, 0.022, 0.994, 192.0, 0.0, 0.0, 0.0, 0.0, 0.0, 0.0, 0.0, 0.0, 0.0, 1.6369780073953292E9, 0.0, 2021-11-15 04:06:47.395
110.0, -56107.86302183426, -20764.547081535708, -13813.758053035504, -65120.51106935872, 0.0, 0.0, 0.0, 0.0, 0.018000000000000002, 0.022, 0.994, 192.0, 0.0, 0.0, 0.0, 0.0, 0.0, 0.0, 0.0, 0.0, 0.0, 1.6369780073953428E9, 0.0, 2021-11-15 04:06:47.395
111.0, -56110.075844535335, -20752.67830522994, -13812.148727434724, -65116.39834837894, 0.0, 0.0, 0.0, 0.0, 0.018000000000000002, 0.022, 0.994, 192.0, 0.0, 0.0, 0.0, 0.0, 0.0, 0.0, 0.0, 0.0, 0.0, 1.6369780073953488E9, 0.0, 2021-11-15 04:06:47.395
112.0, -56114.36737947076, -20755.494625031308, -13822.564640350896, -65119.59464783605, 0.0, 0.0, 0.0, 0.0, 0.018000000000000002, 0.022, 0.994, 192.0, 0.0, 0.0, 0.0, 0.0, 0.0, 0.0, 0.0, 0.0, 0.0, 1.636978007395355E9, 0.0, 2021-11-15 04:06:47.395
113.0, -56123.12926329723, -20779.858026487593, -13844.670515617194, -65147.668438871915, 0.0, 0.0, 0.0, 0.0, 0.016, 0.026000000000000002, 1.0, 192.0, 0.0, 128.0, 0.0, 208.0, 31.0, 64.0, 0.0, 0.0, 0.0, 1.6369780073953612E9, 0.0, 2021-11-15 04:06:47.395
114.0, -56124.11274005327, -20785.60242481261, -13841.340105693354, -65148.56250865013, 0.0, 0.0, 0.0, 0.0, 0.016, 0.026000000000000002, 1.0, 192.0, 0.0, 0.0, 0.0, 0.0, 0.0, 0.0, 0.0, 0.0, 0.0, 1.6369780073953671E9, 0.0, 2021-11-15 04:06:47.395
115.0, -56131.55587095689, -20776.840540986126, -13838.344971936343, -65143.15338649195, 0.0, 0.0, 0.0, 0.0, 0.016, 0.026000000000000002, 1.0, 192.0, 0.0, 0.0, 0.0, 0.0, 0.0, 0.0, 0.0, 0.0, 0.0, 1.636978007395373E9, 0.0, 2021-11-15 04:06:47.395
116.0, -56110.94756256909, -20750.376075551045, -13804.593837808829, -65100.84153423805, 0.0, 0.0, 0.0, 0.0, 0.016, 0.026000000000000002, 1.0, 192.0, 0.0, 0.0, 0.0, 0.0, 0.0, 0.0, 0.0, 0.0, 0.0, 1.6369780073953793E9, 0.0, 2021-11-15 04:06:47.395
117.0, -56094.630789116716, -20753.013581396768, -13800.235247640045, -65099.76865050419, 0.0, 0.0, 0.0, 0.0, 0.016, 0.026000000000000002, 1.0, 192.0, 0.0, 0.0, 0.0, 0.0, 0.0, 0.0, 0.0, 0.0, 0.0, 1.6369780073953855E9, 0.0, 2021-11-15 04:06:47.395
118.0, -56123.844519119804, -20779.81332299868, -13832.667628844694, -65134.16798522091, 0.0, 0.0, 0.0, 0.0, 0.016, 0.026000000000000002, 1.0, 192.0, 0.0, 0.0, 0.0, 0.0, 0.0, 0.0, 0.0, 0.0, 0.0, 1.6369780073953917E9, 0.0, 2021-11-15 04:06:47.395
119.0, -56120.13412954022, -20776.751134008307, -13839.395503925742, -65153.72576161931, 0.0, 0.0, 0.0, 0.0, 0.016, 0.026000000000000002, 1.0, 192.0, 0.0, 0.0, 0.0, 0.0, 0.0, 0.0, 0.0, 0.0, 0.0, 1.6369780073953977E9, 0.0, 2021-11-15 04:06:47.395
